wavelength       flux
  microns         mJy
      
      0.80013400   1.4854946e-11
      0.80040097   1.5543000e-11
      0.80066800   1.5807970e-11
      0.80093497   1.5902588e-11
      0.80120200   1.6235174e-11
      0.80146903   1.6396772e-11
      0.80173600   1.6623257e-11
      0.80200303   1.6859745e-11
      0.80227000   1.6982207e-11
      0.80253798   1.7305382e-11
      0.80280501   1.7312445e-11
      0.80307299   1.7334110e-11
      0.80334002   1.8008722e-11
      0.80360800   1.8014364e-11
      0.80387598   1.8292063e-11
      0.80414498   1.8716240e-11
      0.80441201   1.8943449e-11
      0.80467999   1.9132060e-11
      0.80494899   1.8585039e-11
      0.80521703   1.9402367e-11
      0.80548501   1.9956154e-11
      0.80575401   1.9932549e-11
      0.80602199   2.0307446e-11
      0.80629098   2.0758172e-11
      0.80655998   2.0996470e-11
      0.80682898   2.1316306e-11
      0.80709797   2.1478443e-11
      0.80736703   2.1477159e-11
      0.80763602   2.1840979e-11
      0.80790502   2.2466392e-11
      0.80817401   2.2605301e-11
      0.80844402   2.2988916e-11
      0.80871302   2.2605791e-11
      0.80898303   2.3666908e-11
      0.80925298   2.3782899e-11
      0.80952299   2.3820083e-11
      0.80979198   2.4368275e-11
      0.81006199   2.4173153e-11
      0.81033200   2.5237349e-11
      0.81060201   2.5533525e-11
      0.81087202   2.5900580e-11
      0.81114298   2.6194380e-11
      0.81141299   2.6579234e-11
      0.81168300   2.6948795e-11
      0.81195402   2.7251434e-11
      0.81222498   2.7686231e-11
      0.81249499   2.8008124e-11
      0.81276602   2.8348215e-11
      0.81303698   2.8781690e-11
      0.81330800   2.9084026e-11
      0.81357902   2.9502559e-11
      0.81384999   2.9917802e-11
      0.81412202   3.0242332e-11
      0.81439298   3.0631623e-11
      0.81466401   3.1038217e-11
      0.81493598   3.1456427e-11
      0.81520802   3.1484196e-11
      0.81547898   3.2332360e-11
      0.81575102   3.2676333e-11
      0.81602299   3.3184886e-11
      0.81629598   3.3565839e-11
      0.81656700   3.3587708e-11
      0.81683898   3.4524033e-11
      0.81711203   3.4921134e-11
      0.81738400   3.5354667e-11
      0.81765699   3.5836944e-11
      0.81792998   3.6427459e-11
      0.81820202   3.6668863e-11
      0.81847501   3.5388950e-11
      0.81874698   3.7807372e-11
      0.81901997   3.7978937e-11
      0.81929302   3.8870409e-11
      0.81956702   3.8463525e-11
      0.81984001   3.8440702e-11
      0.82011300   3.9505054e-11
      0.82038599   3.9911351e-11
      0.82066000   4.1290334e-11
      0.82093298   4.1431727e-11
      0.82120699   4.2320508e-11
      0.82147998   4.1225233e-11
      0.82175398   4.2984720e-11
      0.82202798   4.4314959e-11
      0.82230198   4.2942578e-11
      0.82257599   4.5447532e-11
      0.82284999   4.6176113e-11
      0.82312500   4.6749438e-11
      0.82339901   4.5105812e-11
      0.82367402   4.7353980e-11
      0.82394898   4.8578893e-11
      0.82422298   4.8623182e-11
      0.82449800   4.9804245e-11
      0.82477301   5.0604209e-11
      0.82504803   4.8822503e-11
      0.82532299   5.1567305e-11
      0.82559800   5.1960160e-11
      0.82587302   5.3103468e-11
      0.82614797   5.3821284e-11
      0.82642299   5.4588895e-11
      0.82669902   5.5069523e-11
      0.82697397   5.5927664e-11
      0.82725000   5.6486642e-11
      0.82752699   5.7284264e-11
      0.82780200   5.7804775e-11
      0.82807702   5.8653741e-11
      0.82835299   5.9438461e-11
      0.82862997   6.0230690e-11
      0.82890600   6.1203638e-11
      0.82918298   6.2839700e-11
      0.82945901   6.2543095e-11
      0.82973498   6.3585630e-11
      0.83001202   6.4944836e-11
      0.83028901   6.5603831e-11
      0.83056498   6.6350092e-11
      0.83084202   6.5204818e-11
      0.83111900   6.7345166e-11
      0.83139598   6.8666070e-11
      0.83167398   7.0214681e-11
      0.83195102   6.9770080e-11
      0.83222800   7.1812017e-11
      0.83250499   7.2826815e-11
      0.83278298   7.3637294e-11
      0.83306098   7.1471518e-11
      0.83333802   7.4068436e-11
      0.83361602   7.3571280e-11
      0.83389300   7.7165966e-11
      0.83417100   7.7326219e-11
      0.83444899   7.9481694e-11
      0.83472800   7.8471952e-11
      0.83500600   8.1550485e-11
      0.83528399   8.3183922e-11
      0.83556300   8.4000843e-11
      0.83584100   8.5313163e-11
      0.83612001   8.6274917e-11
      0.83639902   8.7271377e-11
      0.83667803   8.7460070e-11
      0.83695698   9.0062819e-11
      0.83723497   9.1236895e-11
      0.83751500   9.2098476e-11
      0.83779401   9.3537798e-11
      0.83807302   9.4820625e-11
      0.83835298   9.6228229e-11
      0.83863199   9.7693317e-11
      0.83891100   9.4506433e-11
      0.83919102   1.0014849e-10
      0.83947098   1.0141271e-10
      0.83974999   1.0295304e-10
      0.84003001   1.0364626e-10
      0.84030998   1.0499927e-10
      0.84059000   1.0721243e-10
      0.84087002   1.0899850e-10
      0.84115100   1.1010225e-10
      0.84143102   1.1082794e-10
      0.84171200   1.1272018e-10
      0.84199202   1.1209885e-10
      0.84227300   1.1646066e-10
      0.84255397   1.1710983e-10
      0.84283501   1.1948774e-10
      0.84311599   1.2162175e-10
      0.84339702   1.2235206e-10
      0.84367800   1.2167001e-10
      0.84395897   1.2496370e-10
      0.84424001   1.2467450e-10
      0.84452200   1.2897927e-10
      0.84480298   1.2488217e-10
      0.84508502   1.3402904e-10
      0.84536600   1.3551274e-10
      0.84564799   1.3792921e-10
      0.84592998   1.3961733e-10
      0.84621298   1.4066461e-10
      0.84649402   1.4209585e-10
      0.84677601   1.4234763e-10
      0.84705800   1.3833352e-10
      0.84734100   1.4672793e-10
      0.84762299   1.5070240e-10
      0.84790599   1.5380979e-10
      0.84818900   1.5547222e-10
      0.84847099   1.5768496e-10
      0.84875399   1.6050264e-10
      0.84903699   1.6300324e-10
      0.84931999   1.6396074e-10
      0.84960300   1.6572593e-10
      0.84988600   1.4988909e-10
      0.85017002   1.4566286e-10
      0.85045302   1.6435439e-10
      0.85073602   1.7146728e-10
      0.85101998   1.7594151e-10
      0.85130399   1.8035374e-10
      0.85158700   1.7664326e-10
      0.85187101   1.8343486e-10
      0.85215598   1.8959848e-10
      0.85243899   1.9291676e-10
      0.85272300   1.9485360e-10
      0.85300797   1.9109717e-10
      0.85329199   1.9923459e-10
      0.85357702   2.0022012e-10
      0.85386097   1.9707493e-10
      0.85414600   1.8786384e-10
      0.85443097   1.2979520e-10
      0.85471499   1.8363441e-10
      0.85500002   2.0385507e-10
      0.85528499   2.1347591e-10
      0.85557002   2.2034877e-10
      0.85585600   2.2007099e-10
      0.85614097   2.2950099e-10
      0.85642600   2.3284361e-10
      0.85671198   2.3705263e-10
      0.85699701   2.4029395e-10
      0.85728300   2.4392182e-10
      0.85756898   2.4771639e-10
      0.85785401   2.5092247e-10
      0.85813999   2.5470966e-10
      0.85842597   2.5270434e-10
      0.85871202   2.5924912e-10
      0.85899901   2.6207366e-10
      0.85928500   2.6423194e-10
      0.85957199   2.6209862e-10
      0.85985798   2.5684608e-10
      0.86014497   2.5529604e-10
      0.86043203   2.7177669e-10
      0.86071801   2.7725252e-10
      0.86100501   2.8763217e-10
      0.86129200   2.8646002e-10
      0.86157900   2.9967793e-10
      0.86186701   3.0181820e-10
      0.86215401   3.0998022e-10
      0.86244100   3.0960795e-10
      0.86272901   3.1772040e-10
      0.86301601   3.2413873e-10
      0.86330402   3.2723008e-10
      0.86359102   3.3213457e-10
      0.86387998   3.3494242e-10
      0.86416698   3.3826175e-10
      0.86445498   3.4194953e-10
      0.86474299   3.5057471e-10
      0.86503202   3.4372528e-10
      0.86532098   3.5735965e-10
      0.86560899   3.5888462e-10
      0.86589700   3.5750214e-10
      0.86618602   3.3645040e-10
      0.86647499   2.4548982e-10
      0.86676401   3.2981334e-10
      0.86705297   3.6315091e-10
      0.86734200   3.7735150e-10
      0.86763102   3.7929652e-10
      0.86791998   4.0416186e-10
      0.86820900   3.9248780e-10
      0.86849898   4.1819122e-10
      0.86878800   4.2181826e-10
      0.86907798   4.0955773e-10
      0.86936700   4.3775103e-10
      0.86965698   4.3484734e-10
      0.86994702   4.5641509e-10
      0.87023699   4.4467253e-10
      0.87052798   4.6483368e-10
      0.87081701   4.7491684e-10
      0.87110698   4.8190583e-10
      0.87139797   4.6176931e-10
      0.87168801   4.9178489e-10
      0.87197900   4.9044544e-10
      0.87226897   5.0627468e-10
      0.87256002   5.1596401e-10
      0.87285101   5.2126190e-10
      0.87314200   5.1633312e-10
      0.87343299   5.3418788e-10
      0.87372398   5.1847595e-10
      0.87401497   5.3385953e-10
      0.87430698   5.4485411e-10
      0.87459898   5.3433931e-10
      0.87489003   5.3623077e-10
      0.87518102   5.0114154e-10
      0.87547302   5.1535126e-10
      0.87576598   5.6716243e-10
      0.87605798   5.7368745e-10
      0.87634999   6.0545087e-10
      0.87664098   6.0392852e-10
      0.87693298   6.2882431e-10
      0.87722498   6.4100286e-10
      0.87751800   6.2844271e-10
      0.87781000   6.5879921e-10
      0.87810302   6.7567426e-10
      0.87839597   6.8576284e-10
      0.87868899   6.9340401e-10
      0.87898201   7.0253584e-10
      0.87927502   6.9966721e-10
      0.87956798   7.0858221e-10
      0.87986100   7.3837777e-10
      0.88015401   7.5135067e-10
      0.88044798   7.6248385e-10
      0.88074100   7.5977043e-10
      0.88103402   7.1861809e-10
      0.88132799   7.9045615e-10
      0.88162202   8.0546484e-10
      0.88191599   8.1804752e-10
      0.88220900   8.1299561e-10
      0.88250399   8.3792353e-10
      0.88279802   8.1473197e-10
      0.88309199   8.6162158e-10
      0.88338602   8.7297673e-10
      0.88368100   8.7777028e-10
      0.88397598   8.6511514e-10
      0.88427001   8.9880441e-10
      0.88456500   9.1180902e-10
      0.88485998   9.1014707e-10
      0.88515502   9.3006517e-10
      0.88545001   9.3674131e-10
      0.88574499   9.3596186e-10
      0.88604099   9.2361350e-10
      0.88633603   8.6595400e-10
      0.88663101   8.4042372e-10
      0.88692701   9.2994532e-10
      0.88722199   9.9695806e-10
      0.88751799   1.0269575e-09
      0.88781399   1.0392475e-09
      0.88810998   1.0685368e-09
      0.88840598   1.0869664e-09
      0.88870198   1.1066539e-09
      0.88899899   1.1400531e-09
      0.88929498   1.1564931e-09
      0.88959098   1.1561795e-09
      0.88988698   1.1961700e-09
      0.89018399   1.2078764e-09
      0.89048100   1.2364622e-09
      0.89077801   1.2533674e-09
      0.89107502   1.2695844e-09
      0.89137203   1.2447546e-09
      0.89166898   1.3134535e-09
      0.89196599   1.3310311e-09
      0.89226300   1.3219770e-09
      0.89256102   1.3500132e-09
      0.89285898   1.3218586e-09
      0.89315599   1.3874245e-09
      0.89345300   1.4276770e-09
      0.89375198   1.4528983e-09
      0.89404899   1.4764009e-09
      0.89434701   1.4975881e-09
      0.89464498   1.4838801e-09
      0.89494300   1.5256705e-09
      0.89524198   1.5428402e-09
      0.89554000   1.5861268e-09
      0.89583898   1.5991500e-09
      0.89613801   1.6262682e-09
      0.89643598   1.6443023e-09
      0.89673501   1.6598192e-09
      0.89703399   1.6714260e-09
      0.89733303   1.7195770e-09
      0.89763200   1.7310534e-09
      0.89793098   1.7392860e-09
      0.89823103   1.7655963e-09
      0.89853001   1.8087117e-09
      0.89882898   1.8232373e-09
      0.89912897   1.8459342e-09
      0.89942902   1.8714507e-09
      0.89972800   1.8889347e-09
      0.90002799   1.9092362e-09
      0.90032798   1.8599581e-09
      0.90062898   1.9416193e-09
      0.90092897   1.9378550e-09
      0.90122998   1.8577098e-09
      0.90153003   1.7616476e-09
      0.90183002   1.6775798e-09
      0.90213102   1.9585298e-09
      0.90243101   2.0397070e-09
      0.90273201   2.1306677e-09
      0.90303302   2.1933610e-09
      0.90333402   2.2446166e-09
      0.90363598   2.2917768e-09
      0.90393698   2.3119138e-09
      0.90423799   2.3729717e-09
      0.90453899   2.4154586e-09
      0.90484101   2.4588712e-09
      0.90514201   2.4985519e-09
      0.90544498   2.5030120e-09
      0.90574598   2.5819731e-09
      0.90604699   2.6051734e-09
      0.90635002   2.4070071e-09
      0.90665197   2.6478925e-09
      0.90695399   2.7361571e-09
      0.90725601   2.7741657e-09
      0.90755898   2.8252769e-09
      0.90786099   2.8593903e-09
      0.90816402   2.7165008e-09
      0.90846699   2.9599730e-09
      0.90877002   2.9962664e-09
      0.90907300   2.7836227e-09
      0.90937603   3.0769619e-09
      0.90967900   2.8806976e-09
      0.90998203   3.1764956e-09
      0.91028500   3.1782383e-09
      0.91058898   3.2333620e-09
      0.91089201   3.2968250e-09
      0.91119599   3.3708783e-09
      0.91149998   3.2077258e-09
      0.91180301   3.4679878e-09
      0.91210699   3.4931880e-09
      0.91241097   3.5718392e-09
      0.91271502   3.6049451e-09
      0.91302001   3.6808183e-09
      0.91332400   3.7364048e-09
      0.91362798   3.7894105e-09
      0.91393298   3.8449836e-09
      0.91423798   3.9128210e-09
      0.91454202   3.9696509e-09
      0.91484702   4.0081498e-09
      0.91515201   4.0322984e-09
      0.91545701   4.1538748e-09
      0.91576201   4.1951458e-09
      0.91606802   4.2703671e-09
      0.91637301   4.3243522e-09
      0.91667801   4.3696035e-09
      0.91698402   4.4556382e-09
      0.91728997   4.5186215e-09
      0.91759598   4.5428626e-09
      0.91790098   4.6160052e-09
      0.91820699   4.6971664e-09
      0.91851300   4.7434724e-09
      0.91881901   4.8287089e-09
      0.91912597   4.9178274e-09
      0.91943198   4.9815446e-09
      0.91973901   5.0533081e-09
      0.92004502   5.0880833e-09
      0.92035198   5.1659730e-09
      0.92065901   5.2131432e-09
      0.92096603   5.2395582e-09
      0.92127299   5.2890348e-09
      0.92158002   5.0984598e-09
      0.92188698   5.3613155e-09
      0.92219400   5.2932428e-09
      0.92250198   5.4065571e-09
      0.92280900   5.2089170e-09
      0.92311698   4.3997566e-09
      0.92342401   5.2495871e-09
      0.92373198   5.6954868e-09
      0.92404002   5.7069661e-09
      0.92434800   6.0995891e-09
      0.92465597   6.0714888e-09
      0.92496401   6.2985921e-09
      0.92527300   6.5086589e-09
      0.92558098   6.5026420e-09
      0.92589003   6.4486363e-09
      0.92619801   6.5858922e-09
      0.92650700   6.8391675e-09
      0.92681599   6.9373492e-09
      0.92712498   7.2266387e-09
      0.92743403   7.3122169e-09
      0.92774302   7.4812482e-09
      0.92805201   7.5977374e-09
      0.92836201   7.6160556e-09
      0.92867100   7.8355960e-09
      0.92898101   7.8989234e-09
      0.92929000   7.9554881e-09
      0.92960000   8.1059521e-09
      0.92991000   8.2850610e-09
      0.93022001   8.4354932e-09
      0.93053001   8.5326711e-09
      0.93084002   8.6875786e-09
      0.93115002   8.7901507e-09
      0.93146098   8.9579472e-09
      0.93177098   9.1292166e-09
      0.93208200   9.0898226e-09
      0.93239301   9.3905789e-09
      0.93270302   9.4688590e-09
      0.93301398   9.5447125e-09
      0.93332499   9.8432070e-09
      0.93363601   9.9513769e-09
      0.93394798   1.0084858e-08
      0.93425900   1.0303971e-08
      0.93457001   1.0411412e-08
      0.93488199   1.0582934e-08
      0.93519300   1.0618521e-08
      0.93550599   1.0939033e-08
      0.93581700   1.1050976e-08
      0.93612897   1.1141267e-08
      0.93644100   1.1392796e-08
      0.93675297   1.1461615e-08
      0.93706501   1.1755398e-08
      0.93737799   1.1919816e-08
      0.93769002   1.2107258e-08
      0.93800300   1.2297540e-08
      0.93831599   1.2492001e-08
      0.93862802   1.2662698e-08
      0.93894100   1.2784893e-08
      0.93925399   1.3060027e-08
      0.93956703   1.3120874e-08
      0.93988001   1.3293075e-08
      0.94019401   1.3660356e-08
      0.94050699   1.3699356e-08
      0.94081998   1.3062403e-08
      0.94113398   1.4151208e-08
      0.94144797   1.4281769e-08
      0.94176102   1.3391016e-08
      0.94207501   1.4939142e-08
      0.94238901   1.4709944e-08
      0.94270402   1.5469935e-08
      0.94301802   1.5596138e-08
      0.94333202   1.5547380e-08
      0.94364703   1.5869935e-08
      0.94396198   1.6038558e-08
      0.94427598   1.6189212e-08
      0.94459099   1.6732716e-08
      0.94490600   1.6852344e-08
      0.94522101   1.7453728e-08
      0.94553602   1.7557843e-08
      0.94585103   1.7773939e-08
      0.94616598   1.8164516e-08
      0.94648099   1.8450358e-08
      0.94679701   1.8725015e-08
      0.94711298   1.9047488e-08
      0.94742799   1.9423438e-08
      0.94774401   1.9701827e-08
      0.94805998   1.9931854e-08
      0.94837600   2.0123426e-08
      0.94869298   2.0570050e-08
      0.94900799   2.0728785e-08
      0.94932503   2.1166720e-08
      0.94964099   2.1515624e-08
      0.94995803   2.1759589e-08
      0.95027399   2.2082196e-08
      0.95059103   2.2385083e-08
      0.95090801   2.2406770e-08
      0.95122498   2.3019749e-08
      0.95154202   2.3224149e-08
      0.95185900   2.3697529e-08
      0.95217699   2.3833787e-08
      0.95249403   2.4188512e-08
      0.95281100   2.4406159e-08
      0.95312899   2.4520242e-08
      0.95344698   2.4987190e-08
      0.95376402   2.4960622e-08
      0.95408201   2.4970576e-08
      0.95440000   2.4275717e-08
      0.95471799   2.1379215e-08
      0.95503700   2.2634780e-08
      0.95535499   2.5656398e-08
      0.95567399   2.7021960e-08
      0.95599198   2.7696991e-08
      0.95631099   2.8681970e-08
      0.95662999   2.9093965e-08
      0.95694900   2.9962690e-08
      0.95726800   3.0128203e-08
      0.95758700   3.0800579e-08
      0.95790601   3.1444576e-08
      0.95822501   3.2291854e-08
      0.95854402   3.2738520e-08
      0.95886397   3.3132544e-08
      0.95918298   3.3899261e-08
      0.95950300   3.4289717e-08
      0.95982301   3.4948151e-08
      0.96014398   3.5508362e-08
      0.96046299   3.4843088e-08
      0.96078300   3.6240361e-08
      0.96110302   3.6568275e-08
      0.96142399   3.8083091e-08
      0.96174401   3.8687728e-08
      0.96206498   3.9240262e-08
      0.96238601   3.7947207e-08
      0.96270698   4.0251669e-08
      0.96302801   4.0177055e-08
      0.96334898   4.1566128e-08
      0.96367002   4.1824395e-08
      0.96399099   4.2187380e-08
      0.96431202   4.3694716e-08
      0.96463299   4.4498008e-08
      0.96495599   4.4967490e-08
      0.96527702   4.5021177e-08
      0.96559799   4.5982093e-08
      0.96592098   4.6823028e-08
      0.96624202   4.4909181e-08
      0.96656400   4.8243662e-08
      0.96688598   4.9660113e-08
      0.96720898   5.0221249e-08
      0.96753198   5.0664363e-08
      0.96785402   5.1309172e-08
      0.96817601   5.2518896e-08
      0.96849900   5.2914868e-08
      0.96882200   5.4396290e-08
      0.96914500   5.4400612e-08
      0.96946800   5.5391389e-08
      0.96979100   5.6865336e-08
      0.97011399   5.7764869e-08
      0.97043800   5.8694499e-08
      0.97076100   5.9535434e-08
      0.97108501   6.0874957e-08
      0.97140801   6.1759975e-08
      0.97173202   6.2707579e-08
      0.97205698   6.3716715e-08
      0.97237998   6.4793945e-08
      0.97270399   6.5568165e-08
      0.97302800   6.6231114e-08
      0.97335303   6.7612152e-08
      0.97367698   6.8472979e-08
      0.97400200   6.8132988e-08
      0.97432703   7.0921543e-08
      0.97465199   7.1576771e-08
      0.97497600   7.2127444e-08
      0.97530198   7.4248438e-08
      0.97562701   7.4920111e-08
      0.97595203   7.6591871e-08
      0.97627699   7.8167226e-08
      0.97660202   7.7971311e-08
      0.97692800   8.0721689e-08
      0.97725302   8.0923826e-08
      0.97757900   8.3073792e-08
      0.97790498   8.4483393e-08
      0.97823101   8.5836104e-08
      0.97855699   8.6601195e-08
      0.97888398   8.7719529e-08
      0.97921002   8.9364491e-08
      0.97953600   9.0782431e-08
      0.97986299   9.2177096e-08
      0.98018998   9.3066661e-08
      0.98051602   9.5966573e-08
      0.98084301   9.7501871e-08
      0.98117000   9.8854282e-08
      0.98149699   9.9689810e-08
      0.98182398   1.0205314e-07
      0.98215199   1.0368684e-07
      0.98247898   1.0421710e-07
      0.98280698   1.0691699e-07
      0.98313397   1.0809551e-07
      0.98346102   1.1043916e-07
      0.98378998   1.1099089e-07
      0.98411798   1.1346655e-07
      0.98444498   1.1487259e-07
      0.98477298   1.1702273e-07
      0.98510098   1.1850783e-07
      0.98543000   1.2083462e-07
      0.98575801   1.2127926e-07
      0.98608702   1.2406470e-07
      0.98641598   1.2553596e-07
      0.98674500   1.2946730e-07
      0.98707402   1.3111482e-07
      0.98740298   1.3288564e-07
      0.98773199   1.3578647e-07
      0.98806101   1.3798535e-07
      0.98839098   1.3967513e-07
      0.98872000   1.4187536e-07
      0.98904902   1.4151696e-07
      0.98937899   1.4056032e-07
      0.98970801   1.4914970e-07
      0.99003798   1.5035716e-07
      0.99036801   1.5077806e-07
      0.99069899   1.5444932e-07
      0.99102902   1.5789889e-07
      0.99135900   1.6099321e-07
      0.99168998   1.6101729e-07
      0.99202001   1.6700365e-07
      0.99235100   1.6900454e-07
      0.99268198   1.7199583e-07
      0.99301302   1.7508118e-07
      0.99334401   1.7335090e-07
      0.99367499   1.8008533e-07
      0.99400598   1.8305903e-07
      0.99433702   1.8183146e-07
      0.99466902   1.8840881e-07
      0.99500000   1.9235816e-07
      0.99533200   1.9346938e-07
      0.99566400   1.9817402e-07
      0.99599499   2.0037183e-07
      0.99632698   2.0411008e-07
      0.99665999   2.0821530e-07
      0.99699199   2.1110977e-07
      0.99732399   2.1184484e-07
      0.99765700   2.1713445e-07
      0.99798900   2.2094432e-07
      0.99832201   2.2539649e-07
      0.99865502   2.2852611e-07
      0.99898797   2.3083386e-07
      0.99932098   2.3605469e-07
      0.99965400   2.3809870e-07
      0.99996001   2.4108827e-07
       1.0003200   2.4698483e-07
       1.0006500   2.5019043e-07
       1.0009900   2.5133107e-07
       1.0013200   2.5575690e-07
       1.0016500   2.6211917e-07
       1.0019900   2.6558405e-07
       1.0023201   2.6873430e-07
       1.0026600   2.7234411e-07
       1.0029900   2.7330863e-07
       1.0033300   2.7777669e-07
       1.0036600   2.8120655e-07
       1.0039901   2.7808201e-07
       1.0043300   2.8232189e-07
       1.0046600   2.7732141e-07
       1.0050000   2.5381684e-07
       1.0053300   2.3954406e-07
       1.0056700   2.8660736e-07
       1.0060000   3.0284888e-07
       1.0063400   3.1351958e-07
       1.0066800   3.1609242e-07
       1.0070100   3.2921250e-07
       1.0073500   3.3870994e-07
       1.0076801   3.4502423e-07
       1.0080200   3.4976128e-07
       1.0083500   3.5858031e-07
       1.0086900   3.6349422e-07
       1.0090300   3.7106554e-07
       1.0093600   3.7458886e-07
       1.0096999   3.8455559e-07
       1.0100400   3.8766744e-07
       1.0103700   3.9516320e-07
       1.0107100   3.9379740e-07
       1.0110500   4.1195183e-07
       1.0113800   4.1888630e-07
       1.0117199   4.2401907e-07
       1.0120600   4.3305945e-07
       1.0123900   4.3820618e-07
       1.0127300   4.2881553e-07
       1.0130700   4.5505856e-07
       1.0134100   4.6186463e-07
       1.0137500   4.6981068e-07
       1.0140800   4.7663997e-07
       1.0144200   4.8414685e-07
       1.0147600   4.8139757e-07
       1.0151000   4.9403491e-07
       1.0154400   5.0651953e-07
       1.0157700   5.1181217e-07
       1.0161099   5.2361681e-07
       1.0164500   5.3093013e-07
       1.0167900   5.2318495e-07
       1.0171300   5.4886993e-07
       1.0174700   5.5715009e-07
       1.0178100   5.6636688e-07
       1.0181500   5.7527458e-07
       1.0184900   5.6824497e-07
       1.0188299   5.7658681e-07
       1.0191700   6.0094340e-07
       1.0195100   6.0209557e-07
       1.0198500   6.2326647e-07
       1.0201800   6.2693355e-07
       1.0205200   6.3949369e-07
       1.0208600   6.5328763e-07
       1.0211999   6.5820673e-07
       1.0215501   6.6318260e-07
       1.0218900   6.6803679e-07
       1.0222300   6.8981427e-07
       1.0225700   7.0030424e-07
       1.0229100   7.1563484e-07
       1.0232500   7.2499790e-07
       1.0235900   7.4048905e-07
       1.0239300   7.4606363e-07
       1.0242701   7.5551032e-07
       1.0246100   7.7444159e-07
       1.0249600   7.7966591e-07
       1.0253000   8.0104608e-07
       1.0256400   8.1222818e-07
       1.0259800   8.2578323e-07
       1.0263200   8.3640464e-07
       1.0266700   8.5116895e-07
       1.0270100   8.6514374e-07
       1.0273499   8.6979713e-07
       1.0276901   8.8996332e-07
       1.0280401   9.0615787e-07
       1.0283800   9.2144570e-07
       1.0287200   9.2709384e-07
       1.0290600   9.2034685e-07
       1.0294100   9.6412170e-07
       1.0297500   9.7912834e-07
       1.0300900   9.8936726e-07
       1.0304400   1.0021007e-06
       1.0307800   1.0252301e-06
       1.0311199   1.0396946e-06
       1.0314699   1.0452183e-06
       1.0318100   1.0741718e-06
       1.0321600   1.0890538e-06
       1.0325000   1.1067961e-06
       1.0328400   1.1014551e-06
       1.0331900   1.1004590e-06
       1.0335300   1.1512325e-06
       1.0338800   1.1679397e-06
       1.0342200   1.1852912e-06
       1.0345600   1.1817554e-06
       1.0349100   1.2234408e-06
       1.0352499   1.2476205e-06
       1.0355999   1.2589116e-06
       1.0359499   1.2857488e-06
       1.0362900   1.3105567e-06
       1.0366400   1.3255754e-06
       1.0369800   1.3482967e-06
       1.0373300   1.3169286e-06
       1.0376700   1.3686097e-06
       1.0380200   1.4001990e-06
       1.0383700   1.4352976e-06
       1.0387100   1.4580477e-06
       1.0390600   1.4780212e-06
       1.0394000   1.5007207e-06
       1.0397500   1.5084476e-06
       1.0401000   1.5411007e-06
       1.0404400   1.5717848e-06
       1.0407900   1.5836089e-06
       1.0411400   1.6017252e-06
       1.0414799   1.6438853e-06
       1.0418299   1.6652362e-06
       1.0421799   1.6981993e-06
       1.0425299   1.7098421e-06
       1.0428700   1.7128259e-06
       1.0432200   1.7759136e-06
       1.0435700   1.7996240e-06
       1.0439200   1.8277284e-06
       1.0442700   1.8578133e-06
       1.0446100   1.8860306e-06
       1.0449600   1.8950190e-06
       1.0453100   1.9259745e-06
       1.0456600   1.9203884e-06
       1.0460100   1.9180658e-06
       1.0463600   1.9488642e-06
       1.0467000   2.0636449e-06
       1.0470500   2.0732000e-06
       1.0474000   2.0690208e-06
       1.0477500   2.1555116e-06
       1.0481000   2.1744446e-06
       1.0484500   2.1977084e-06
       1.0488000   2.2451369e-06
       1.0491500   2.2927418e-06
       1.0495000   2.3263985e-06
       1.0498500   2.3618641e-06
       1.0502000   2.4002914e-06
       1.0505500   2.3886502e-06
       1.0509000   2.4578336e-06
       1.0512500   2.4907376e-06
       1.0516000   2.5255418e-06
       1.0519500   2.5453201e-06
       1.0523000   2.5966961e-06
       1.0526500   2.6600187e-06
       1.0530000   2.7038782e-06
       1.0533500   2.6762624e-06
       1.0537000   2.7847922e-06
       1.0540500   2.8243001e-06
       1.0544100   2.8372135e-06
       1.0547600   2.9171075e-06
       1.0551100   2.9581636e-06
       1.0554600   2.9833200e-06
       1.0558100   3.0461551e-06
       1.0561600   3.0717225e-06
       1.0565200   3.1433730e-06
       1.0568700   3.1782546e-06
       1.0572200   3.2099779e-06
       1.0575700   3.2186951e-06
       1.0579300   3.3088788e-06
       1.0582800   3.3378975e-06
       1.0586300   3.2657191e-06
       1.0589800   3.3232211e-06
       1.0593400   3.4968740e-06
       1.0596900   3.5601350e-06
       1.0600400   3.6215572e-06
       1.0604000   3.6867588e-06
       1.0607500   3.5274831e-06
       1.0611000   3.8078881e-06
       1.0614600   3.8553857e-06
       1.0618100   3.9178658e-06
       1.0621700   3.9525361e-06
       1.0625200   4.0351887e-06
       1.0628700   4.0110934e-06
       1.0632300   4.0423156e-06
       1.0635800   4.1371135e-06
       1.0639400   4.2863867e-06
       1.0642900   4.3484041e-06
       1.0646501   4.4084597e-06
       1.0650001   4.4734676e-06
       1.0653600   4.5403654e-06
       1.0657099   4.6037576e-06
       1.0660700   4.6770714e-06
       1.0664200   4.5258412e-06
       1.0667800   4.7949447e-06
       1.0671300   4.8789415e-06
       1.0674900   4.9279866e-06
       1.0678400   5.0101878e-06
       1.0682000   5.1008838e-06
       1.0685600   4.8058014e-06
       1.0689100   4.9573351e-06
       1.0692700   4.7693578e-06
       1.0696300   5.1745875e-06
       1.0699800   5.4898860e-06
       1.0703400   5.4269339e-06
       1.0707000   5.5241370e-06
       1.0710500   5.4107659e-06
       1.0714099   5.8096170e-06
       1.0717700   5.8661385e-06
       1.0721200   5.8624646e-06
       1.0724800   6.0809214e-06
       1.0728400   6.1178421e-06
       1.0732000   5.7227742e-06
       1.0735500   6.2723253e-06
       1.0739100   6.4490477e-06
       1.0742700   6.5142109e-06
       1.0746300   6.5081295e-06
       1.0749900   6.7038687e-06
       1.0753500   6.5090858e-06
       1.0757000   6.6968330e-06
       1.0760601   7.0213061e-06
       1.0764199   7.1144676e-06
       1.0767800   7.1696958e-06
       1.0771400   7.2463234e-06
       1.0775000   7.4402806e-06
       1.0778600   7.5522919e-06
       1.0782200   7.6623985e-06
       1.0785800   7.6058770e-06
       1.0789400   7.4845920e-06
       1.0793000   7.9881118e-06
       1.0796601   8.0147406e-06
       1.0800101   8.1123185e-06
       1.0803699   8.3032210e-06
       1.0807300   8.4210482e-06
       1.0810900   8.5000488e-06
       1.0814500   8.0690484e-06
       1.0818200   8.8419550e-06
       1.0821800   8.9032153e-06
       1.0825400   9.0873322e-06
       1.0829000   8.5819346e-06
       1.0832601   9.2286165e-06
       1.0836200   9.3342477e-06
       1.0839800   9.5814050e-06
       1.0843400   9.6851750e-06
       1.0847000   9.4868965e-06
       1.0850700   9.9946147e-06
       1.0854300   1.0169829e-05
       1.0857900   1.0309098e-05
       1.0861501   1.0456517e-05
       1.0865099   1.0394176e-05
       1.0868700   1.0743546e-05
       1.0872400   9.8264791e-06
       1.0876000   1.0962908e-05
       1.0879600   1.1193656e-05
       1.0883300   1.1313558e-05
       1.0886900   1.0885893e-05
       1.0890501   1.1622730e-05
       1.0894099   1.1715670e-05
       1.0897800   1.1770235e-05
       1.0901400   1.2086269e-05
       1.0905000   1.2221525e-05
       1.0908700   1.2319070e-05
       1.0912300   1.2481707e-05
       1.0915999   1.2332275e-05
       1.0919600   1.2246570e-05
       1.0923200   1.2797250e-05
       1.0926900   1.2920113e-05
       1.0930500   1.2834401e-05
       1.0934200   1.2642787e-05
       1.0937800   1.1945724e-05
       1.0941401   1.0328024e-05
       1.0945100   1.2574281e-05
       1.0948700   1.3499354e-05
       1.0952400   1.4026443e-05
       1.0956000   1.4016278e-05
       1.0959700   1.4422386e-05
       1.0963300   1.5084239e-05
       1.0967000   1.4816086e-05
       1.0970600   1.5584856e-05
       1.0974300   1.5920042e-05
       1.0978000   1.6188832e-05
       1.0981600   1.5748348e-05
       1.0985301   1.6256896e-05
       1.0988899   1.6666821e-05
       1.0992600   1.7227692e-05
       1.0996300   1.7493118e-05
       1.0999900   1.7803155e-05
       1.1003600   1.8072057e-05
       1.1007299   1.8316572e-05
       1.1010900   1.8611872e-05
       1.1014600   1.8772090e-05
       1.1018300   1.8871677e-05
       1.1022000   1.8471018e-05
       1.1025600   1.9643622e-05
       1.1029299   1.9834256e-05
       1.1033000   2.0281433e-05
       1.1036700   2.0482490e-05
       1.1040300   2.0843879e-05
       1.1044000   2.1076514e-05
       1.1047699   2.1256685e-05
       1.1051400   2.1720968e-05
       1.1055100   2.1984890e-05
       1.1058800   2.2178062e-05
       1.1062400   2.2580260e-05
       1.1066099   2.3014992e-05
       1.1069800   2.3335246e-05
       1.1073500   2.3623548e-05
       1.1077200   2.3987009e-05
       1.1080900   2.4316555e-05
       1.1084599   2.4489462e-05
       1.1088300   2.4992170e-05
       1.1092000   2.5297281e-05
       1.1095700   2.5697095e-05
       1.1099401   2.5876600e-05
       1.1103100   2.6421917e-05
       1.1106800   2.6762915e-05
       1.1110500   2.7151824e-05
       1.1114200   2.7524562e-05
       1.1117899   2.7889389e-05
       1.1121600   2.7809745e-05
       1.1125300   2.8678719e-05
       1.1129000   2.8867662e-05
       1.1132700   2.8723425e-05
       1.1136400   2.9681217e-05
       1.1140100   3.0090659e-05
       1.1143900   3.0731814e-05
       1.1147600   3.0844997e-05
       1.1151299   3.1409522e-05
       1.1155000   3.1980641e-05
       1.1158700   3.2248327e-05
       1.1162400   3.2801880e-05
       1.1166199   3.3249940e-05
       1.1169900   3.3782419e-05
       1.1173600   3.4216324e-05
       1.1177300   3.4728532e-05
       1.1181099   3.5052514e-05
       1.1184800   3.5441498e-05
       1.1188500   3.5754069e-05
       1.1192200   3.5030488e-05
       1.1196001   3.7150266e-05
       1.1199700   3.6890675e-05
       1.1203400   3.7484566e-05
       1.1207200   3.8566729e-05
       1.1210901   3.9121180e-05
       1.1214600   3.9748599e-05
       1.1218400   4.0180941e-05
       1.1222100   4.0821702e-05
       1.1225899   4.1397958e-05
       1.1229600   4.1932970e-05
       1.1233300   4.2471535e-05
       1.1237100   4.3067729e-05
       1.1240799   4.3685513e-05
       1.1244600   4.4324042e-05
       1.1248300   4.4738794e-05
       1.1252100   4.5509337e-05
       1.1255800   4.3645914e-05
       1.1259600   4.5141512e-05
       1.1263300   4.7262359e-05
       1.1267101   4.7913884e-05
       1.1270800   4.8485970e-05
       1.1274600   4.9250782e-05
       1.1278400   4.9940505e-05
       1.1282099   5.0566241e-05
       1.1285900   5.1322518e-05
       1.1289600   5.0443641e-05
       1.1293401   5.0843155e-05
       1.1297200   5.3097409e-05
       1.1300900   5.2941959e-05
       1.1304700   5.4408554e-05
       1.1308500   5.5378543e-05
       1.1312200   5.5331555e-05
       1.1316000   5.6994208e-05
       1.1319799   5.7773455e-05
       1.1323600   5.8411328e-05
       1.1327300   5.9198639e-05
       1.1331100   6.0086108e-05
       1.1334900   5.7997394e-05
       1.1338700   6.0790086e-05
       1.1342400   6.2147441e-05
       1.1346200   6.3419099e-05
       1.1350000   6.3592310e-05
       1.1353800   6.5108851e-05
       1.1357599   6.5503842e-05
       1.1361400   6.5928117e-05
       1.1365100   6.7790430e-05
       1.1368901   6.8626290e-05
       1.1372700   6.9650798e-05
       1.1376500   6.8472835e-05
       1.1380301   7.1247986e-05
       1.1384100   7.0215373e-05
       1.1387900   7.3103970e-05
       1.1391701   7.2319590e-05
       1.1395500   7.4352888e-05
       1.1399300   7.5987327e-05
       1.1403100   7.4879281e-05
       1.1406900   7.4046306e-05
       1.1410700   7.7239904e-05
       1.1414500   7.9754100e-05
       1.1418300   8.1525057e-05
       1.1422100   8.2172504e-05
       1.1425900   8.1971278e-05
       1.1429700   8.4341844e-05
       1.1433500   8.5625353e-05
       1.1437300   8.6770604e-05
       1.1441100   8.5809601e-05
       1.1445000   8.9179479e-05
       1.1448801   8.7834052e-05
       1.1452600   9.0157128e-05
       1.1456400   9.2760270e-05
       1.1460201   9.3686668e-05
       1.1464100   9.5187925e-05
       1.1467900   9.6546954e-05
       1.1471699   9.7750910e-05
       1.1475500   9.8351016e-05
       1.1479300   0.00010002426
       1.1483200   0.00010163982
       1.1487000   0.00010201478
       1.1490800   0.00010401411
       1.1494700   0.00010565771
       1.1498500   0.00010683128
       1.1502301   0.00010838165
       1.1506100   0.00010893981
       1.1510000   0.00011117641
       1.1513799   0.00011243485
       1.1517700   0.00011429976
       1.1521500   0.00011422990
       1.1525300   0.00011554406
       1.1529200   0.00011857597
       1.1533000   0.00011991999
       1.1536900   0.00012183375
       1.1540700   0.00012334949
       1.1544600   0.00012441326
       1.1548400   0.00012663262
       1.1552300   0.00012827006
       1.1556100   0.00012983176
       1.1560000   0.00013124478
       1.1563801   0.00013309173
       1.1567700   0.00013486875
       1.1571500   0.00013651976
       1.1575400   0.00013801267
       1.1579200   0.00014021198
       1.1583101   0.00014200799
       1.1587000   0.00014282572
       1.1590800   0.00014527488
       1.1594700   0.00014398423
       1.1598600   0.00014523951
       1.1602401   0.00014870960
       1.1606300   0.00015237189
       1.1610200   0.00015051963
       1.1614000   0.00015056944
       1.1617900   0.00015647761
       1.1621799   0.00015700997
       1.1625600   0.00016310424
       1.1629500   0.00016515575
       1.1633400   0.00016240219
       1.1637300   0.00016953149
       1.1641099   0.00016708725
       1.1645000   0.00017160311
       1.1648901   0.00017609954
       1.1652800   0.00017532386
       1.1656700   0.00017614352
       1.1660600   0.00017646306
       1.1664500   0.00017825304
       1.1668299   0.00018743355
       1.1672200   0.00018216421
       1.1676100   0.00018940991
       1.1680000   0.00019446197
       1.1683900   0.00019694148
       1.1687800   0.00019947793
       1.1691700   0.00019373319
       1.1695600   0.00020341660
       1.1699500   0.00020688815
       1.1703399   0.00020737837
       1.1707300   0.00021246795
       1.1711200   0.00021519075
       1.1715100   0.00021777774
       1.1719000   0.00022014590
       1.1722900   0.00022329783
       1.1726800   0.00022602074
       1.1730700   0.00022886174
       1.1734700   0.00022987774
       1.1738600   0.00023424576
       1.1742500   0.00023640332
       1.1746401   0.00023999702
       1.1750300   0.00023230563
       1.1754200   0.00024503535
       1.1758100   0.00022080385
       1.1762100   0.00025278608
       1.1766000   0.00025453767
       1.1769900   0.00025881485
       1.1773800   0.00026114665
       1.1777800   0.00026054452
       1.1781700   0.00026183327
       1.1785600   0.00026354554
       1.1789500   0.00027569551
       1.1793500   0.00027738851
       1.1797400   0.00028268033
       1.1801300   0.00028601657
       1.1805300   0.00028152623
       1.1809200   0.00029327766
       1.1813101   0.00029061859
       1.1817100   0.00029996430
       1.1821001   0.00030242581
       1.1824900   0.00030539994
       1.1828901   0.00030752526
       1.1832800   0.00029332539
       1.1836801   0.00031930112
       1.1840700   0.00031020091
       1.1844701   0.00032659900
       1.1848600   0.00033070671
       1.1852601   0.00032692607
       1.1856500   0.00033768264
       1.1860501   0.00034380156
       1.1864400   0.00034176241
       1.1868401   0.00035036003
       1.1872300   0.00035645274
       1.1876301   0.00035821581
       1.1880200   0.00036510875
       1.1884201   0.00035079828
       1.1888200   0.00035837902
       1.1892101   0.00037352947
       1.1896100   0.00037147544
       1.1900100   0.00037299593
       1.1904000   0.00039264268
       1.1908000   0.00039745060
       1.1912000   0.00040253197
       1.1915900   0.00040697136
       1.1919900   0.00041265620
       1.1923900   0.00041765533
       1.1927900   0.00042252204
       1.1931800   0.00042763817
       1.1935800   0.00043244904
       1.1939800   0.00043830814
       1.1943800   0.00044349709
       1.1947700   0.00044784331
       1.1951700   0.00043842779
       1.1955700   0.00045935854
       1.1959701   0.00045938196
       1.1963700   0.00047043111
       1.1967700   0.00047616175
       1.1971700   0.00048229621
       1.1975600   0.00046681320
       1.1979600   0.00049342977
       1.1983600   0.00049947941
       1.1987600   0.00047324366
       1.1991600   0.00051010849
       1.1995600   0.00049084796
       1.1999600   0.00052299205
       1.2003599   0.00052923897
       1.2007600   0.00052864873
       1.2011600   0.00054315344
       1.2015600   0.00054821082
       1.2019600   0.00055568480
       1.2023600   0.00056277222
       1.2027600   0.00056776104
       1.2031699   0.00057482547
       1.2035700   0.00053900714
       1.2039700   0.00058751913
       1.2043700   0.00058640292
       1.2047700   0.00060178167
       1.2051700   0.00061175341
       1.2055700   0.00061569360
       1.2059799   0.00062579568
       1.2063800   0.00063254225
       1.2067800   0.00063723023
       1.2071800   0.00064368112
       1.2075800   0.00065541953
       1.2079901   0.00066305316
       1.2083900   0.00065901145
       1.2087899   0.00060638177
       1.2092000   0.00068349523
       1.2096000   0.00069425824
       1.2100000   0.00069931534
       1.2104000   0.00070372223
       1.2108099   0.00068835330
       1.2112100   0.00072118481
       1.2116200   0.00072482925
       1.2120200   0.00074456732
       1.2124200   0.00075212546
       1.2128299   0.00076235345
       1.2132300   0.00077336290
       1.2136400   0.00077945548
       1.2140400   0.00079229922
       1.2144500   0.00080048767
       1.2148499   0.00080763016
       1.2152600   0.00081754189
       1.2156600   0.00082534637
       1.2160701   0.00083962234
       1.2164700   0.00084906758
       1.2168800   0.00085833786
       1.2172800   0.00086089482
       1.2176900   0.00087688882
       1.2180901   0.00088626381
       1.2185000   0.00089722102
       1.2189100   0.00090561317
       1.2193100   0.00091224020
       1.2197200   0.00092662997
       1.2201300   0.00092242497
       1.2205300   0.00095265343
       1.2209400   0.00095430286
       1.2213500   0.00097274641
       1.2217500   0.00096776823
       1.2221600   0.00099645345
       1.2225699    0.0010093519
       1.2229800    0.0010138746
       1.2233800    0.0010241304
       1.2237900    0.0010431632
       1.2242000    0.0010523671
       1.2246100    0.0010620344
       1.2250201    0.0010594156
       1.2254200    0.0010823356
       1.2258300    0.0011018655
       1.2262400    0.0011197029
       1.2266500    0.0011141918
       1.2270600    0.0011427694
       1.2274700    0.0011084114
       1.2278800    0.0011666284
       1.2282900    0.0011761932
       1.2287000    0.0011970031
       1.2291000    0.0012092309
       1.2295099    0.0012248047
       1.2299200    0.0012373835
       1.2303300    0.0012514080
       1.2307400    0.0012635764
       1.2311500    0.0012796251
       1.2315600    0.0012715297
       1.2319800    0.0013103580
       1.2323900    0.0013168012
       1.2328000    0.0013412743
       1.2332100    0.0013515473
       1.2336200    0.0013551978
       1.2340300    0.0013539245
       1.2344400    0.0013852669
       1.2348500    0.0014062465
       1.2352700    0.0014108661
       1.2356800    0.0014347801
       1.2360899    0.0014310731
       1.2365000    0.0014495642
       1.2369100    0.0014839542
       1.2373199    0.0015091381
       1.2377400    0.0015362777
       1.2381500    0.0015542937
       1.2385600    0.0015680688
       1.2389801    0.0015888557
       1.2393900    0.0015842022
       1.2398000    0.0015922136
       1.2402101    0.0016257817
       1.2406300    0.0016425285
       1.2410400    0.0016713159
       1.2414600    0.0016979568
       1.2418700    0.0016975888
       1.2422800    0.0017204335
       1.2427000    0.0017219511
       1.2431099    0.0017677307
       1.2435300    0.0017440846
       1.2439400    0.0018139896
       1.2443500    0.0018328748
       1.2447701    0.0018543958
       1.2451900    0.0018772013
       1.2456000    0.0018955753
       1.2460099    0.0019090234
       1.2464300    0.0019332356
       1.2468500    0.0019481953
       1.2472600    0.0019544921
       1.2476799    0.0020006583
       1.2480900    0.0020218074
       1.2485100    0.0020501748
       1.2489200    0.0020703999
       1.2493401    0.0020948269
       1.2497600    0.0021092198
       1.2501700    0.0021317447
       1.2505900    0.0021564202
       1.2510099    0.0021876904
       1.2514300    0.0021678537
       1.2518400    0.0021763509
       1.2522600    0.0022014763
       1.2526799    0.0022404574
       1.2530900    0.0022911837
       1.2535100    0.0023053131
       1.2539300    0.0023543095
       1.2543499    0.0023822528
       1.2547700    0.0024141190
       1.2551800    0.0023937087
       1.2556000    0.0024657294
       1.2560199    0.0024912939
       1.2564400    0.0024427872
       1.2568600    0.0025273995
       1.2572800    0.0025180459
       1.2577000    0.0026046433
       1.2581199    0.0026181245
       1.2585400    0.0025660321
       1.2589600    0.0026886002
       1.2593700    0.0026964674
       1.2597899    0.0027512168
       1.2602201    0.0027793810
       1.2606400    0.0027472681
       1.2610500    0.0028159211
       1.2614700    0.0028326059
       1.2618901    0.0027864906
       1.2623200    0.0029282570
       1.2627400    0.0029624936
       1.2631600    0.0029930176
       1.2635800    0.0030239968
       1.2640001    0.0030054301
       1.2644200    0.0030555301
       1.2648400    0.0031075905
       1.2652600    0.0031265669
       1.2656900    0.0031950880
       1.2661099    0.0032147266
       1.2665300    0.0032600337
       1.2669500    0.0032665414
       1.2673700    0.0033284091
       1.2678000    0.0033675746
       1.2682199    0.0033127814
       1.2686400    0.0034208712
       1.2690700    0.0034671840
       1.2694900    0.0035048664
       1.2699100    0.0035234472
       1.2703300    0.0035754204
       1.2707601    0.0035929314
       1.2711800    0.0036212521
       1.2716100    0.0036845365
       1.2720300    0.0037330614
       1.2724500    0.0037741774
       1.2728800    0.0038102646
       1.2733001    0.0038482643
       1.2737300    0.0038808665
       1.2741500    0.0039098825
       1.2745800    0.0039421225
       1.2750000    0.0039991969
       1.2754300    0.0040346914
       1.2758501    0.0040748832
       1.2762800    0.0041094329
       1.2767000    0.0041462822
       1.2771300    0.0041714392
       1.2775500    0.0042133208
       1.2779800    0.0042467600
       1.2783999    0.0042745824
       1.2788301    0.0043093256
       1.2792600    0.0043232654
       1.2796800    0.0043486162
       1.2801100    0.0043636145
       1.2805400    0.0043408180
       1.2809600    0.0042876422
       1.2813900    0.0041843278
       1.2818201    0.0038927894
       1.2822500    0.0034123672
       1.2826700    0.0041595533
       1.2831000    0.0044327515
       1.2835300    0.0046271877
       1.2839500    0.0047638275
       1.2843800    0.0048456043
       1.2848099    0.0049472253
       1.2852401    0.0050195157
       1.2856700    0.0050976008
       1.2861000    0.0051693977
       1.2865300    0.0052351572
       1.2869500    0.0053064157
       1.2873800    0.0053314266
       1.2878100    0.0054308823
       1.2882400    0.0054618923
       1.2886699    0.0055578503
       1.2891001    0.0056389145
       1.2895300    0.0057045557
       1.2899600    0.0057236884
       1.2903900    0.0056981293
       1.2908200    0.0058860159
       1.2912500    0.0059114270
       1.2916800    0.0060242947
       1.2921100    0.0060832390
       1.2925400    0.0060984694
       1.2929699    0.0062205576
       1.2934000    0.0062720589
       1.2938401    0.0062767877
       1.2942700    0.0063830298
       1.2947000    0.0064810273
       1.2951300    0.0065115418
       1.2955600    0.0066126412
       1.2959900    0.0066332993
       1.2964200    0.0067564590
       1.2968600    0.0067658498
       1.2972900    0.0067785920
       1.2977200    0.0069695752
       1.2981499    0.0069676307
       1.2985899    0.0071168256
       1.2990201    0.0071730479
       1.2994500    0.0072478821
       1.2998900    0.0073459569
       1.3003200    0.0074142344
       1.3007500    0.0074586098
       1.3011900    0.0075681909
       1.3016200    0.0076489518
       1.3020500    0.0076928589
       1.3024900    0.0078113560
       1.3029200    0.0078636531
       1.3033600    0.0078428457
       1.3037900    0.0079870407
       1.3042300    0.0080560190
       1.3046600    0.0081715569
       1.3050900    0.0082752310
       1.3055300    0.0083256097
       1.3059601    0.0084574109
       1.3063999    0.0085301094
       1.3068399    0.0085158195
       1.3072701    0.0087060443
       1.3077101    0.0087803362
       1.3081400    0.0088813158
       1.3085800    0.0089957959
       1.3090200    0.0090355971
       1.3094500    0.0091732478
       1.3098900    0.0091804281
       1.3103300    0.0092892009
       1.3107600    0.0094216087
       1.3112000    0.0095424020
       1.3116400    0.0096321064
       1.3120700    0.0096589374
       1.3125100    0.0092858692
       1.3129500    0.0098861406
       1.3133900    0.0099900589
       1.3138200    0.0099795723
       1.3142600     0.010234692
       1.3147000     0.010311774
       1.3151400     0.010318826
       1.3155800     0.010005524
       1.3160200     0.010567465
       1.3164500     0.010721410
       1.3168900     0.010729143
       1.3173300     0.010950366
       1.3177700     0.011074474
       1.3182100     0.010889294
       1.3186500     0.011181906
       1.3190900     0.011402250
       1.3195300     0.011468918
       1.3199700     0.011572809
       1.3204100     0.011682802
       1.3208500     0.011853034
       1.3212900     0.011906731
       1.3217300     0.012028159
       1.3221700     0.012143896
       1.3226100     0.012307615
       1.3230500     0.012452481
       1.3234900     0.012570790
       1.3239300     0.012687461
       1.3243700     0.012803534
       1.3248200     0.012939945
       1.3252600     0.013021707
       1.3257000     0.013194803
       1.3261400     0.013316805
       1.3265800     0.013380543
       1.3270299     0.013491258
       1.3274699     0.013711858
       1.3279099     0.013826621
       1.3283499     0.013846687
       1.3288000     0.014111190
       1.3292400     0.013764232
       1.3296800     0.014224676
       1.3301200     0.014515133
       1.3305700     0.014570148
       1.3310100     0.014767501
       1.3314500     0.014899751
       1.3319000     0.015098553
       1.3323400     0.014708374
       1.3327900     0.015323476
       1.3332300     0.015468222
       1.3336800     0.015706345
       1.3341200     0.015857767
       1.3345701     0.015943021
       1.3350101     0.016094379
       1.3354501     0.016094581
       1.3358999     0.016449926
       1.3363500     0.016603786
       1.3367900     0.016791356
       1.3372400     0.016906344
       1.3376800     0.017049760
       1.3381300     0.017258684
       1.3385700     0.017362468
       1.3390200     0.017476593
       1.3394700     0.017280234
       1.3399100     0.017762924
       1.3403600     0.018102369
       1.3408099     0.018263385
       1.3412499     0.018314560
       1.3417000     0.018601270
       1.3421500     0.018673918
       1.3425900     0.018961111
       1.3430400     0.019090996
       1.3434900     0.019199350
       1.3439400     0.019531184
       1.3443900     0.019712671
       1.3448400     0.019887571
       1.3452801     0.020052403
       1.3457299     0.020181583
       1.3461800     0.020283158
       1.3466300     0.020558502
       1.3470800     0.020838346
       1.3475300     0.021053630
       1.3479800     0.021156173
       1.3484300     0.021443687
       1.3488700     0.021576706
       1.3493201     0.021853020
       1.3497699     0.021815438
       1.3502200     0.022154116
       1.3506700     0.021894808
       1.3511200     0.022698669
       1.3515700     0.022889168
       1.3520300     0.023084904
       1.3524801     0.023208785
       1.3529299     0.023533920
       1.3533800     0.023771777
       1.3538300     0.023921210
       1.3542800     0.024177710
       1.3547300     0.024350380
       1.3551800     0.024312553
       1.3556401     0.024717058
       1.3560899     0.024966961
       1.3565400     0.024931250
       1.3569900     0.025016295
       1.3574400     0.025759487
       1.3579000     0.026043812
       1.3583500     0.026117618
       1.3588001     0.026524766
       1.3592499     0.026636696
       1.3597100     0.026919798
       1.3601600     0.027223473
       1.3606100     0.027177710
       1.3610700     0.027750841
       1.3615201     0.028021407
       1.3619699     0.028256830
       1.3624300     0.028470970
       1.3628800     0.028385585
       1.3633400     0.028972569
       1.3637900     0.029300260
       1.3642499     0.029542700
       1.3647000     0.029630461
       1.3651600     0.030001702
       1.3656100     0.030304838
       1.3660700     0.030611558
       1.3665200     0.031000865
       1.3669800     0.030767723
       1.3674300     0.031510871
       1.3678900     0.031828410
       1.3683500     0.031959494
       1.3688000     0.031784659
       1.3692600     0.032613140
       1.3697100     0.032771071
       1.3701700     0.031944257
       1.3706300     0.033410117
       1.3710800     0.033222463
       1.3715400     0.033979807
       1.3720000     0.034554402
       1.3724600     0.034413311
       1.3729100     0.034602319
       1.3733701     0.035294812
       1.3738300     0.035121709
       1.3742900     0.036098574
       1.3747400     0.034594075
       1.3752000     0.036749084
       1.3756599     0.036859057
       1.3761200     0.036641357
       1.3765800     0.037571547
       1.3770400     0.037244073
       1.3775001     0.038343790
       1.3779500     0.038127604
       1.3784100     0.039046375
       1.3788700     0.039473853
       1.3793300     0.039754010
       1.3797899     0.040177813
       1.3802500     0.039710602
       1.3807100     0.040922016
       1.3811700     0.041159472
       1.3816299     0.041568156
       1.3820900     0.041584580
       1.3825600     0.042351421
       1.3830200     0.042500775
       1.3834800     0.042248663
       1.3839400     0.043464069
       1.3844000     0.043907350
       1.3848600     0.044241861
       1.3853199     0.044199017
       1.3857800     0.044904595
       1.3862500     0.045431669
       1.3867100     0.045187134
       1.3871700     0.046131967
       1.3876300     0.046521007
       1.3881000     0.046976119
       1.3885601     0.047533452
       1.3890200     0.047830290
       1.3894800     0.048345134
       1.3899500     0.047565335
       1.3904099     0.049201573
       1.3908700     0.049331984
       1.3913400     0.049983080
       1.3918000     0.050523840
       1.3922600     0.050749078
       1.3927300     0.050905026
       1.3931900     0.051773469
       1.3936599     0.051979519
       1.3941200     0.052064360
       1.3945900     0.052449559
       1.3950500     0.053471803
       1.3955200     0.053182966
       1.3959800     0.054257150
       1.3964500     0.054738734
       1.3969100     0.055298561
       1.3973800     0.055935102
       1.3978400     0.056483611
       1.3983099     0.056711903
       1.3987800     0.057221938
       1.3992400     0.057735247
       1.3997101     0.056942732
       1.4001800     0.058276253
       1.4006400     0.058937143
       1.4011101     0.058742254
       1.4015800     0.060521912
       1.4020400     0.061076237
       1.4025100     0.061432535
       1.4029800     0.060855443
       1.4034500     0.062399887
       1.4039100     0.063121374
       1.4043800     0.063263322
       1.4048500     0.064236537
       1.4053200     0.064748243
       1.4057900     0.065415195
       1.4062600     0.065388730
       1.4067200     0.066462914
       1.4071900     0.067046734
       1.4076600     0.066895700
       1.4081300     0.068209065
       1.4086000     0.067527075
       1.4090700     0.069365873
       1.4095401     0.069721662
       1.4100100     0.070432429
       1.4104800     0.071043044
       1.4109499     0.071465670
       1.4114200     0.072058224
       1.4118900     0.071055284
       1.4123600     0.071961154
       1.4128300     0.073923923
       1.4133000     0.073083176
       1.4137700     0.075306404
       1.4142500     0.075686353
       1.4147201     0.076730986
       1.4151900     0.077167272
       1.4156600     0.077850347
       1.4161299     0.077498770
       1.4166000     0.078539813
       1.4170800     0.079929908
       1.4175500     0.080412607
       1.4180200     0.081326787
       1.4184901     0.080874049
       1.4189700     0.082583925
       1.4194400     0.083255493
       1.4199100     0.083485709
       1.4203900     0.083902854
       1.4208601     0.084167279
       1.4213300     0.086083106
       1.4218100     0.086857880
       1.4222800     0.087298782
       1.4227600     0.085506046
       1.4232301     0.089077817
       1.4237000     0.089766875
       1.4241800     0.086982579
       1.4246500     0.090913377
       1.4251300     0.092031292
       1.4256001     0.091105631
       1.4260800     0.092937199
       1.4265500     0.092248612
       1.4270300     0.095084582
       1.4275100     0.093076092
       1.4279799     0.096691064
       1.4284600     0.097563951
       1.4289300     0.095901509
       1.4294100     0.095682481
       1.4298900     0.098216845
       1.4303600      0.10007062
       1.4308400      0.10041218
       1.4313200      0.10032883
       1.4317900      0.10257405
       1.4322701      0.10344581
       1.4327500      0.10472008
       1.4332300      0.10586427
       1.4337000      0.10610409
       1.4341800      0.10742496
       1.4346600      0.10820518
       1.4351400      0.10870889
       1.4356200      0.11003918
       1.4360900      0.11094936
       1.4365700      0.11115489
       1.4370500      0.11293217
       1.4375300      0.11379393
       1.4380100      0.11457000
       1.4384900      0.11517130
       1.4389700      0.11658337
       1.4394500      0.11697911
       1.4399300      0.11811738
       1.4404100      0.10842944
       1.4408900      0.11618556
       1.4413700      0.12131001
       1.4418499      0.12194242
       1.4423300      0.11690474
       1.4428101      0.12390375
       1.4432900      0.11985727
       1.4437701      0.12572570
       1.4442500      0.12612905
       1.4447401      0.12384488
       1.4452200      0.12894035
       1.4457000      0.12995877
       1.4461800      0.12974395
       1.4466600      0.13129008
       1.4471400      0.13235722
       1.4476300      0.13377211
       1.4481100      0.13509324
       1.4485900      0.13360806
       1.4490700      0.13742617
       1.4495600      0.13695033
       1.4500400      0.13714132
       1.4505301      0.13751679
       1.4510100      0.14188573
       1.4514900      0.13800686
       1.4519700      0.14446341
       1.4524601      0.14381056
       1.4529400      0.14431715
       1.4534301      0.14653169
       1.4539100      0.14835581
       1.4543999      0.14578801
       1.4548800      0.14204212
       1.4553699      0.15242642
       1.4558500      0.14913555
       1.4563400      0.15424120
       1.4568200      0.15290165
       1.4573100      0.15535834
       1.4577900      0.15832452
       1.4582800      0.15960857
       1.4587700      0.16115030
       1.4592500      0.16028095
       1.4597400      0.16173850
       1.4602300      0.16383718
       1.4607100      0.16447455
       1.4612000      0.16694510
       1.4616899      0.16860109
       1.4621700      0.16700776
       1.4626600      0.17098559
       1.4631500      0.16886924
       1.4636400      0.17255790
       1.4641200      0.16896104
       1.4646100      0.17537387
       1.4651000      0.17613059
       1.4655900      0.16876677
       1.4660800      0.17994263
       1.4665700      0.18217217
       1.4670500      0.18343632
       1.4675400      0.18253551
       1.4680300      0.18594398
       1.4685200      0.18681177
       1.4690100      0.18922443
       1.4694999      0.18787970
       1.4699900      0.19176047
       1.4704800      0.18635414
       1.4709700      0.19474287
       1.4714600      0.19247120
       1.4719501      0.19678984
       1.4724400      0.19238041
       1.4729300      0.20066137
       1.4734200      0.20216597
       1.4739100      0.20337147
       1.4744101      0.20093672
       1.4749000      0.20668273
       1.4753900      0.20243722
       1.4758800      0.20539903
       1.4763700      0.21113400
       1.4768699      0.21272786
       1.4773600      0.21100709
       1.4778500      0.21583396
       1.4783400      0.21226103
       1.4788400      0.21113645
       1.4793299      0.22044088
       1.4798200      0.22175642
       1.4803200      0.22348461
       1.4808100      0.22435387
       1.4813000      0.22212848
       1.4818000      0.22618471
       1.4822900      0.23030812
       1.4827800      0.23103409
       1.4832799      0.22752332
       1.4837700      0.22934159
       1.4842700      0.23577923
       1.4847600      0.23681933
       1.4852600      0.23981051
       1.4857500      0.23969190
       1.4862500      0.24560866
       1.4867400      0.24418341
       1.4872400      0.24663088
       1.4877400      0.24673247
       1.4882300      0.21646494
       1.4887300      0.25432064
       1.4892200      0.25671837
       1.4897200      0.25872405
       1.4902101      0.25589623
       1.4907100      0.25967363
       1.4912100      0.26110965
       1.4917099      0.26353971
       1.4922000      0.26745732
       1.4927000      0.27003377
       1.4931999      0.27092412
       1.4937000      0.27417149
       1.4941900      0.27331074
       1.4946899      0.27801230
       1.4951900      0.27870272
       1.4956900      0.28106989
       1.4961900      0.27369971
       1.4966900      0.28527456
       1.4971800      0.28254040
       1.4976799      0.28950899
       1.4981800      0.28948968
       1.4986800      0.29060255
       1.4991800      0.29059129
       1.4996800      0.29801234
       1.5001700      0.29902707
       1.5006800      0.30201913
       1.5011801      0.30281950
       1.5016800      0.30229598
       1.5021800      0.30342990
       1.5026799      0.28914217
       1.5031900      0.30487293
       1.5036900      0.31481683
       1.5041900      0.30451732
       1.5046901      0.30909853
       1.5051900      0.30365705
       1.5056900      0.31431563
       1.5061899      0.32672014
       1.5067000      0.32695417
       1.5072000      0.33043938
       1.5077000      0.33397742
       1.5082000      0.33069388
       1.5087100      0.33905539
       1.5092100      0.34187907
       1.5097100      0.33739181
       1.5102201      0.34062228
       1.5107200      0.34863174
       1.5112200      0.35067687
       1.5117300      0.35351588
       1.5122300      0.35166938
       1.5127300      0.35102796
       1.5132400      0.36159876
       1.5137399      0.36128405
       1.5142500      0.36131113
       1.5147500      0.36526691
       1.5152600      0.37085591
       1.5157599      0.37200537
       1.5162700      0.37185556
       1.5167700      0.37686535
       1.5172800      0.38010305
       1.5177799      0.38457844
       1.5182900      0.38514273
       1.5188000      0.38650416
       1.5193000      0.39276481
       1.5198100      0.39467192
       1.5203201      0.39302206
       1.5208200      0.39960614
       1.5213300      0.39402321
       1.5218400      0.40613845
       1.5223401      0.39824986
       1.5228500      0.41039851
       1.5233600      0.41097089
       1.5238600      0.41652670
       1.5243700      0.41946519
       1.5248801      0.41382509
       1.5253900      0.42681846
       1.5259000      0.42856943
       1.5264100      0.42931262
       1.5269200      0.43214418
       1.5274200      0.43823951
       1.5279300      0.44255431
       1.5284400      0.44419852
       1.5289500      0.44902823
       1.5294600      0.45116807
       1.5299700      0.42974278
       1.5304800      0.45715793
       1.5309900      0.46112855
       1.5315000      0.46543036
       1.5320100      0.46281066
       1.5325201      0.47120896
       1.5330300      0.47378420
       1.5335500      0.47485996
       1.5340600      0.46803138
       1.5345700      0.47404450
       1.5350800      0.48171714
       1.5355901      0.48890814
       1.5361000      0.49417535
       1.5366200      0.49608783
       1.5371300      0.50261381
       1.5376400      0.50637220
       1.5381500      0.49214697
       1.5386600      0.51197915
       1.5391800      0.51449101
       1.5396900      0.51166029
       1.5402000      0.50656234
       1.5407200      0.51631072
       1.5412300      0.52972305
       1.5417399      0.53189089
       1.5422601      0.53360816
       1.5427700      0.52273451
       1.5432900      0.53899152
       1.5438000      0.54062680
       1.5443200      0.54394167
       1.5448300      0.54810117
       1.5453500      0.55328907
       1.5458601      0.56023108
       1.5463800      0.56632880
       1.5468900      0.56905451
       1.5474100      0.56693945
       1.5479200      0.57441142
       1.5484400      0.57146807
       1.5489600      0.58682089
       1.5494699      0.58926668
       1.5499901      0.58844221
       1.5505100      0.59428787
       1.5510200      0.60414545
       1.5515400      0.60802548
       1.5520600      0.61025876
       1.5525700      0.61232306
       1.5530900      0.61776397
       1.5536100      0.60588657
       1.5541300      0.61920509
       1.5546401      0.61613205
       1.5551600      0.62460480
       1.5556800      0.62230165
       1.5562000      0.60945675
       1.5567200      0.63234748
       1.5572400      0.64243036
       1.5577600      0.64698036
       1.5582700      0.65934736
       1.5587900      0.65856254
       1.5593100      0.65793152
       1.5598300      0.66781663
       1.5603499      0.68017701
       1.5608701      0.68552038
       1.5614001      0.69300694
       1.5619200      0.69744632
       1.5624400      0.68003671
       1.5629600      0.70809731
       1.5634800      0.69162799
       1.5640000      0.71754120
       1.5645200      0.71697196
       1.5650400      0.71427534
       1.5655600      0.72370951
       1.5660900      0.73041963
       1.5666100      0.72136381
       1.5671300      0.73498728
       1.5676500      0.72855632
       1.5681700      0.73581507
       1.5687000      0.74127287
       1.5692199      0.73310603
       1.5697401      0.72060896
       1.5702699      0.73745177
       1.5707901      0.74323871
       1.5713100      0.75720842
       1.5718400      0.76956699
       1.5723600      0.78104681
       1.5728900      0.77217517
       1.5734100      0.79256829
       1.5739400      0.80589189
       1.5744600      0.76970037
       1.5749800      0.81243376
       1.5755100      0.78101814
       1.5760400      0.83136816
       1.5765600      0.83532960
       1.5770900      0.77489938
       1.5776100      0.81087905
       1.5781400      0.85396781
       1.5786600      0.85469365
       1.5791900      0.85041439
       1.5797100      0.87469199
       1.5802400      0.86965227
       1.5807700      0.88206576
       1.5813000      0.88366985
       1.5818200      0.89331000
       1.5823500      0.86356923
       1.5828800      0.88532667
       1.5834000      0.90677695
       1.5839300      0.87729799
       1.5844600      0.91251242
       1.5849900      0.91819968
       1.5855200      0.90588772
       1.5860400      0.91735429
       1.5865700      0.90796975
       1.5871000      0.89901495
       1.5876300      0.90530230
       1.5881600      0.87920004
       1.5886900      0.88283133
       1.5892200      0.86232537
       1.5897501      0.91868667
       1.5902801      0.93980547
       1.5908099      0.93540021
       1.5913399      0.96588074
       1.5918700      0.98445314
       1.5924000      0.99589590
       1.5929300       1.0154270
       1.5934600       1.0076403
       1.5939900       1.0310930
       1.5945300       1.0243945
       1.5950600       1.0469543
       1.5955900       1.0474215
       1.5961200       1.0333164
       1.5966500       1.0139405
       1.5971900       1.0628875
       1.5977200       1.0803515
       1.5982500       1.0806109
       1.5987800       1.0871696
       1.5993201       1.0985209
       1.5998501       1.1123491
       1.6003799       1.1157550
       1.6009200       1.0714522
       1.6014500       1.1103577
       1.6019800       1.1319665
       1.6025200       1.1190504
       1.6030500       1.1503238
       1.6035900       1.1566096
       1.6041200       1.1601161
       1.6046500       1.1303153
       1.6051900       1.1670976
       1.6057200       1.1760049
       1.6062599       1.1458168
       1.6068000       1.1885441
       1.6073300       1.1819025
       1.6078700       1.1835985
       1.6084000       1.1962709
       1.6089400       1.1903872
       1.6094700       1.1844973
       1.6100100       1.1411024
       1.6105500       1.1375659
       1.6110801       1.1310869
       1.6116199       1.1367116
       1.6121600       1.1758786
       1.6127000       1.2152598
       1.6132300       1.2250745
       1.6137700       1.2587368
       1.6143100       1.2569613
       1.6148500       1.2944668
       1.6153899       1.2813704
       1.6159199       1.2585136
       1.6164600       1.3277805
       1.6170000       1.2991358
       1.6175400       1.3487317
       1.6180800       1.3512366
       1.6186200       1.3496163
       1.6191601       1.3532164
       1.6197000       1.3756090
       1.6202400       1.3481539
       1.6207800       1.3846859
       1.6213200       1.3988783
       1.6218600       1.3893607
       1.6224000       1.4383566
       1.6229399       1.4325950
       1.6234800       1.4347902
       1.6240200       1.4427055
       1.6245600       1.4468132
       1.6251100       1.4785785
       1.6256500       1.4877438
       1.6261899       1.4947574
       1.6267300       1.5022050
       1.6272700       1.5160644
       1.6278200       1.5194146
       1.6283600       1.5311544
       1.6289001       1.5371137
       1.6294399       1.5454939
       1.6299900       1.5372920
       1.6305300       1.5563057
       1.6310700       1.5756643
       1.6316200       1.5651908
       1.6321599       1.5589537
       1.6327100       1.5787548
       1.6332500       1.6059987
       1.6338000       1.5602317
       1.6343400       1.6183398
       1.6348799       1.6155305
       1.6354300       1.6316471
       1.6359700       1.6328997
       1.6365200       1.6392504
       1.6370699       1.5711717
       1.6376100       1.6425335
       1.6381600       1.6384152
       1.6387000       1.5349718
       1.6392500       1.6178532
       1.6398000       1.5786582
       1.6403400       1.5516706
       1.6408900       1.4929148
       1.6414400       1.5066170
       1.6419801       1.5796464
       1.6425300       1.6399574
       1.6430800       1.6942171
       1.6436300       1.7255600
       1.6441700       1.7183968
       1.6447200       1.7210355
       1.6452700       1.7831231
       1.6458200       1.8016111
       1.6463701       1.8236147
       1.6469200       1.8083516
       1.6474600       1.8243966
       1.6480100       1.8504246
       1.6485600       1.8699466
       1.6491100       1.8382073
       1.6496600       1.8896101
       1.6502100       1.9169682
       1.6507601       1.9177758
       1.6513100       1.9300702
       1.6518600       1.9549594
       1.6524100       1.9488440
       1.6529599       1.9607993
       1.6535100       1.9943999
       1.6540700       1.9755741
       1.6546201       1.9796245
       1.6551700       1.9983118
       1.6557200       2.0293041
       1.6562700       2.0296616
       1.6568201       2.0178599
       1.6573800       2.0513367
       1.6579300       2.0818432
       1.6584800       2.0871112
       1.6590300       2.0805848
       1.6595900       2.0901331
       1.6601400       2.1284505
       1.6606899       2.1493779
       1.6612500       2.1552305
       1.6618000       2.1607044
       1.6623600       2.1625386
       1.6629100       2.1842952
       1.6634600       2.1652945
       1.6640199       2.2102455
       1.6645700       2.2155544
       1.6651300       2.1862619
       1.6656801       2.1937085
       1.6662400       2.2577162
       1.6667900       2.2369958
       1.6673501       2.2772947
       1.6679100       2.2732778
       1.6684600       2.2371923
       1.6690201       2.3106126
       1.6695700       2.3261245
       1.6701300       2.3388655
       1.6706899       2.3466301
       1.6712400       2.3457076
       1.6718000       2.3598787
       1.6723599       2.2934555
       1.6729200       2.3660275
       1.6734700       2.3956385
       1.6740299       2.4007483
       1.6745900       2.4104015
       1.6751500       2.4152678
       1.6757100       2.3247218
       1.6762600       2.4296525
       1.6768200       2.3930631
       1.6773800       2.4404207
       1.6779400       2.4291692
       1.6785001       2.4191022
       1.6790600       2.3997189
       1.6796200       2.3610017
       1.6801800       2.3028723
       1.6807400       2.1735285
       1.6813000       2.1223776
       1.6818600       2.3054437
       1.6824200       2.3821328
       1.6829799       2.4629932
       1.6835400       2.5121240
       1.6841000       2.5741227
       1.6846600       2.6043118
       1.6852300       2.6358420
       1.6857899       2.6589177
       1.6863500       2.6408897
       1.6869100       2.6915867
       1.6874700       2.7126121
       1.6880400       2.7251788
       1.6885999       2.7549206
       1.6891600       2.7737977
       1.6897300       2.6572264
       1.6902900       2.8164627
       1.6908500       2.7893190
       1.6914200       2.8559676
       1.6919800       2.8702983
       1.6925400       2.8917164
       1.6931100       2.8903908
       1.6936700       2.9237315
       1.6942400       2.9448149
       1.6948000       2.9615845
       1.6953700       2.9750728
       1.6959300       2.9894944
       1.6964999       2.9968427
       1.6970600       2.9920705
       1.6976300       3.0053385
       1.6981900       3.0440939
       1.6987600       3.0397171
       1.6993300       3.0658165
       1.6998900       3.0348319
       1.7004600       3.1009201
       1.7010300       3.0514697
       1.7015899       3.0934145
       1.7021600       3.1692427
       1.7027299       3.1647874
       1.7032900       3.1938871
       1.7038600       3.2093753
       1.7044300       3.2401366
       1.7050000       3.2413422
       1.7055700       3.2734592
       1.7061400       3.2893550
       1.7067000       3.2715703
       1.7072700       3.3132633
       1.7078400       3.3360630
       1.7084100       3.3476878
       1.7089800       3.3060558
       1.7095500       3.2946335
       1.7101200       3.4077772
       1.7106900       3.4262889
       1.7112600       3.2029295
       1.7118300       3.4483196
       1.7124000       3.4571347
       1.7129700       3.4921340
       1.7135400       3.5068195
       1.7141200       3.5201877
       1.7146900       3.5552769
       1.7152600       3.5689031
       1.7158300       3.5722383
       1.7164000       3.5391605
       1.7169700       3.6223091
       1.7175500       3.6314089
       1.7181200       3.6478260
       1.7186900       3.6623026
       1.7192600       3.6809062
       1.7198400       3.6839219
       1.7204100       3.7125642
       1.7209899       3.6751488
       1.7215600       3.7529896
       1.7221299       3.7696207
       1.7227100       3.7674725
       1.7232800       3.6467825
       1.7238600       3.7044835
       1.7244300       3.8274294
       1.7250000       3.8343253
       1.7255800       3.8392649
       1.7261600       3.8669434
       1.7267300       3.8910432
       1.7273099       3.8924808
       1.7278800       3.7907705
       1.7284600       3.9001969
       1.7290300       3.9269177
       1.7296100       3.9559346
       1.7301900       3.9725030
       1.7307600       3.9191711
       1.7313401       3.9783258
       1.7319200       3.9959180
       1.7324899       3.9936847
       1.7330700       3.6826067
       1.7336500       3.9498465
       1.7342300       3.7526928
       1.7348100       3.9008425
       1.7353801       3.8124150
       1.7359600       3.6582551
       1.7365400       3.3092761
       1.7371200       3.5552035
       1.7377000       3.8201844
       1.7382801       3.9677375
       1.7388600       4.0704786
       1.7394400       4.1317969
       1.7400200       4.2036402
       1.7406000       4.2449033
       1.7411799       4.1431009
       1.7417600       4.3438383
       1.7423400       4.3508949
       1.7429200       4.3722569
       1.7435000       4.3761003
       1.7440799       4.4592532
       1.7446600       4.5063589
       1.7452400       4.3807725
       1.7458200       4.3842275
       1.7464100       4.5630187
       1.7469900       4.4322071
       1.7475700       4.6154831
       1.7481600       4.5838255
       1.7487400       4.6872879
       1.7493200       4.7150026
       1.7499000       4.7345304
       1.7504900       4.7388606
       1.7510700       4.5974553
       1.7516500       4.8068066
       1.7522399       4.8392570
       1.7528200       4.7829392
       1.7534100       4.8789658
       1.7539901       4.9222145
       1.7545700       4.9388006
       1.7551600       4.8454712
       1.7557400       4.9010130
       1.7563300       5.0173729
       1.7569200       5.0083268
       1.7575001       5.0720042
       1.7580900       5.0922369
       1.7586700       5.0816529
       1.7592601       5.1444243
       1.7598500       5.1700670
       1.7604300       5.1677408
       1.7610199       5.0696206
       1.7616100       5.1745998
       1.7621900       5.0792496
       1.7627800       5.2091202
       1.7633700       5.3288274
       1.7639600       5.1945692
       1.7645400       5.1941768
       1.7651300       5.3691858
       1.7657200       5.4257651
       1.7663100       5.4176432
       1.7668999       5.4227524
       1.7674900       5.3744449
       1.7680800       5.4783774
       1.7686700       5.4021881
       1.7692600       5.5610998
       1.7698500       5.5590743
       1.7704300       5.6122718
       1.7710299       5.6004494
       1.7716200       5.6187281
       1.7722000       5.6538531
       1.7728000       5.5701382
       1.7733901       5.7197754
       1.7739800       5.7382907
       1.7745700       5.7821282
       1.7751600       5.7957014
       1.7757500       5.7964445
       1.7763500       5.8408776
       1.7769400       5.8370031
       1.7775300       5.6895198
       1.7781200       5.9306216
       1.7787200       5.9477688
       1.7793100       5.8682788
       1.7799000       6.0191410
       1.7805001       6.0479814
       1.7810900       6.1010387
       1.7816800       5.9496366
       1.7822700       6.1436636
       1.7828701       6.0784899
       1.7834600       6.1847406
       1.7840600       6.1307175
       1.7846500       6.2164683
       1.7852499       6.1864307
       1.7858400       6.2147849
       1.7864400       6.2691420
       1.7870300       6.3570672
       1.7876300       6.3665525
       1.7882299       6.4326532
       1.7888200       6.4630033
       1.7894200       6.4816750
       1.7900100       6.5129306
       1.7906100       6.5560142
       1.7912101       6.5729475
       1.7918000       6.5863952
       1.7924000       6.6103069
       1.7930000       6.6313085
       1.7936000       6.5675304
       1.7941999       6.5994332
       1.7947900       6.7267835
       1.7953900       6.7739006
       1.7959900       6.7938881
       1.7965900       6.8285916
       1.7971900       6.8112922
       1.7977901       6.8640577
       1.7983800       6.8899392
       1.7989800       6.9134598
       1.7995800       6.9590176
       1.8001800       6.9866623
       1.8007801       6.9727940
       1.8013800       7.0332898
       1.8019800       7.0588224
       1.8025900       6.9290262
       1.8031900       7.0145819
       1.8037900       7.1296138
       1.8043900       7.1981657
       1.8049901       7.2032113
       1.8055900       7.1694675
       1.8062000       7.2808998
       1.8068000       7.1731750
       1.8074000       7.2986902
       1.8080000       7.3178964
       1.8085999       7.2901398
       1.8092099       7.3774707
       1.8098100       7.3349363
       1.8104100       7.3125364
       1.8110200       7.3754352
       1.8116200       7.4202022
       1.8122200       7.4321960
       1.8128300       7.4864799
       1.8134300       7.4829387
       1.8140399       7.4776491
       1.8146400       7.4114821
       1.8152500       7.3862438
       1.8158500       7.1759133
       1.8164600       7.0814223
       1.8170600       6.8567675
       1.8176700       6.1323547
       1.8182700       6.4300268
       1.8188800       7.0492760
       1.8194900       7.3454693
       1.8200901       7.5592082
       1.8207000       7.7003127
       1.8213100       7.8430650
       1.8219100       7.9239575
       1.8225200       7.7192137
       1.8231300       7.9566637
       1.8237400       8.0692430
       1.8243400       8.1700310
       1.8249500       8.1436425
       1.8255600       8.2382778
       1.8261700       8.3253049
       1.8267800       8.3768042
       1.8273900       8.4226859
       1.8279999       8.4274605
       1.8286099       8.4552420
       1.8292100       8.4215250
       1.8298200       8.5835567
       1.8304300       8.5947254
       1.8310400       8.6639695
       1.8316500       8.7320701
       1.8322700       8.5849973
       1.8328800       8.6528175
       1.8334900       8.8575599
       1.8341000       8.8937812
       1.8347100       8.8827103
       1.8353200       8.9431430
       1.8359300       8.9611655
       1.8365400       8.9940455
       1.8371600       9.0096166
       1.8377700       8.8659487
       1.8383800       9.1166225
       1.8390000       9.2102162
       1.8396100       9.1984995
       1.8402200       9.1815273
       1.8408300       9.3339964
       1.8414500       9.3071552
       1.8420600       9.2014860
       1.8426700       9.0693364
       1.8432900       9.3668006
       1.8439000       9.4858921
       1.8445200       9.5286317
       1.8451300       9.4679260
       1.8457500       9.6465221
       1.8463600       9.6842631
       1.8469800       9.3003110
       1.8475900       9.6047435
       1.8482100       9.7698462
       1.8488300       9.8401393
       1.8494400       9.8399877
       1.8500600       9.8763270
       1.8506800       9.9467830
       1.8512900       9.9651166
       1.8519100       10.006448
       1.8525300       9.9626841
       1.8531500       9.7946841
       1.8537600       10.128906
       1.8543800       10.194615
       1.8550000       10.139242
       1.8556200       9.9578096
       1.8562400       10.025698
       1.8568500       10.350704
       1.8574700       10.396549
       1.8580900       10.312815
       1.8587101       10.285024
       1.8593301       10.513355
       1.8599499       10.482349
       1.8605700       10.578272
       1.8611900       10.581934
       1.8618100       10.571785
       1.8624300       10.647399
       1.8630500       10.609481
       1.8636700       10.741315
       1.8643000       10.743512
       1.8649200       10.839258
       1.8655400       10.833401
       1.8661600       10.701978
       1.8667800       10.830547
       1.8674099       10.946315
       1.8680300       10.891445
       1.8686500       10.959506
       1.8692700       11.011535
       1.8699000       10.980170
       1.8705200       11.023536
       1.8711400       11.034069
       1.8717700       10.965887
       1.8723900       10.942771
       1.8730201       10.545476
       1.8736399       10.718112
       1.8742599       10.350171
       1.8748900       9.8367973
       1.8755100       8.1443857
       1.8761400       9.6166843
       1.8767600       10.413724
       1.8773900       10.881444
       1.8780200       10.950652
       1.8786401       11.356785
       1.8792700       11.500356
       1.8798900       11.604688
       1.8805200       11.728979
       1.8811500       11.821869
       1.8817700       11.905524
       1.8824000       11.767949
       1.8830301       12.053406
       1.8836600       12.114829
       1.8842800       12.180107
       1.8849100       11.915011
       1.8855400       12.112661
       1.8861700       12.075368
       1.8868001       12.366540
       1.8874300       12.466717
       1.8880600       12.344101
       1.8886900       12.453371
       1.8893100       12.430336
       1.8899400       12.589639
       1.8905700       12.429237
       1.8911999       12.646164
       1.8918300       12.630064
       1.8924700       12.649957
       1.8931000       12.482426
       1.8937300       12.724267
       1.8943599       13.011894
       1.8949900       12.758465
       1.8956200       13.017934
       1.8962600       12.782056
       1.8968900       13.081950
       1.8975199       13.179085
       1.8981500       13.377750
       1.8987800       13.446353
       1.8994200       13.229342
       1.9000500       13.571499
       1.9006799       13.541761
       1.9013200       13.626641
       1.9019500       13.719304
       1.9025900       13.752350
       1.9032201       13.815187
       1.9038500       13.596239
       1.9044900       13.889908
       1.9051200       13.840431
       1.9057600       14.000421
       1.9063900       14.042989
       1.9070300       14.158893
       1.9076700       14.208727
       1.9083000       14.169456
       1.9089400       14.154897
       1.9095700       14.377905
       1.9102100       14.412276
       1.9108500       14.400083
       1.9114799       14.506741
       1.9121200       14.319432
       1.9127600       14.416076
       1.9133900       14.650989
       1.9140300       14.724054
       1.9146700       14.691769
       1.9153100       14.831146
       1.9159499       14.731014
       1.9165900       14.916732
       1.9172300       15.006978
       1.9178600       15.008225
       1.9184999       15.111425
       1.9191400       15.171923
       1.9197800       14.616193
       1.9204201       15.240779
       1.9210600       15.266887
       1.9217000       15.215781
       1.9223400       15.342272
       1.9229800       15.489489
       1.9236300       15.532004
       1.9242700       15.571205
       1.9249099       15.596210
       1.9255500       15.681290
       1.9261900       15.576578
       1.9268301       15.731428
       1.9274700       15.655023
       1.9281200       15.877570
       1.9287601       15.610466
       1.9294000       15.983805
       1.9300500       16.066836
       1.9306901       16.048136
       1.9313300       15.775788
       1.9319800       16.206269
       1.9326200       16.253075
       1.9332700       16.313643
       1.9339100       16.235151
       1.9345599       16.133013
       1.9352000       16.398935
       1.9358500       16.468752
       1.9364901       16.542330
       1.9371400       16.522064
       1.9377800       16.601214
       1.9384300       16.589364
       1.9390700       16.329282
       1.9397200       16.527680
       1.9403700       16.653181
       1.9410100       16.510448
       1.9416600       16.447868
       1.9423100       16.380401
       1.9429500       16.051747
       1.9436001       15.382906
       1.9442500       15.122411
       1.9449000       13.356429
       1.9455500       14.203635
       1.9461900       15.683046
       1.9468400       16.235391
       1.9474900       16.598905
       1.9481400       16.986257
       1.9487900       17.057810
       1.9494400       17.384322
       1.9500901       17.189506
       1.9507400       17.665722
       1.9513900       16.729970
       1.9520400       17.921624
       1.9526900       18.023912
       1.9533401       18.112082
       1.9539900       18.083045
       1.9546500       18.075569
       1.9553000       18.373299
       1.9559500       18.456959
       1.9566000       18.536152
       1.9572500       18.595639
       1.9579099       18.679974
       1.9585600       18.620120
       1.9592100       18.760833
       1.9598600       18.770268
       1.9605200       18.806238
       1.9611700       19.057312
       1.9618200       18.803810
       1.9624799       19.201191
       1.9631300       18.773135
       1.9637901       19.086038
       1.9644400       19.354225
       1.9651000       19.515889
       1.9657500       19.585516
       1.9664100       19.639516
       1.9670600       19.721176
       1.9677200       19.783557
       1.9683700       19.831899
       1.9690300       19.893400
       1.9696900       19.973071
       1.9703400       20.062465
       1.9710000       20.138716
       1.9716600       20.181250
       1.9723099       20.155252
       1.9729700       19.138457
       1.9736300       20.098447
       1.9742900       20.402785
       1.9749399       20.525231
       1.9756000       20.595618
       1.9762599       20.707349
       1.9769200       20.704575
       1.9775800       20.858130
       1.9782400       20.144547
       1.9789000       20.913096
       1.9795600       20.786287
       1.9802200       21.106478
       1.9808800       21.190808
       1.9815400       21.271467
       1.9822000       21.228637
       1.9828600       21.414355
       1.9835200       21.495493
       1.9841800       21.585170
       1.9848400       21.629275
       1.9855000       21.346624
       1.9861701       21.190149
       1.9868300       21.421523
       1.9874901       21.913754
       1.9881500       21.907474
       1.9888200       22.017882
       1.9894800       22.142157
       1.9901400       22.212388
       1.9908100       22.285046
       1.9914700       22.318396
       1.9921300       22.314886
       1.9928000       22.475890
       1.9934601       22.187579
       1.9941300       22.253956
       1.9947900       22.706584
       1.9954500       22.740566
       1.9961200       22.874455
       1.9967901       22.654084
       1.9974500       22.689477
       1.9981200       22.687838
       1.9987800       23.182969
       1.9994500       23.266512
       2.0000899       23.351258
       2.0007801       23.421873
       2.0014501       23.420569
       2.0021200       23.583042
       2.0027800       23.321781
       2.0034499       23.664191
       2.0041201       23.465697
       2.0047901       23.834650
       2.0054600       23.569591
       2.0061200       23.780720
       2.0067899       24.109902
       2.0074601       23.971434
       2.0081301       24.282041
       2.0088000       24.271715
       2.0094700       24.197624
       2.0101399       24.447218
       2.0108099       24.588940
       2.0114801       24.601310
       2.0121500       24.741975
       2.0128200       24.819473
       2.0134900       24.856881
       2.0141599       24.668852
       2.0148301       24.956101
       2.0155101       25.070891
       2.0161800       25.227039
       2.0168500       25.293304
       2.0175200       25.348530
       2.0181899       25.422552
       2.0188701       25.541439
       2.0195401       25.485019
       2.0202100       25.608504
       2.0208900       25.272510
       2.0215600       25.466398
       2.0222299       25.902588
       2.0229101       25.991683
       2.0235801       25.829331
       2.0242600       26.039674
       2.0249300       26.165126
       2.0256100       26.342453
       2.0262799       26.430757
       2.0269599       26.215684
       2.0276301       26.492274
       2.0283101       26.598129
       2.0289800       26.623113
       2.0296600       26.652512
       2.0303400       26.332175
       2.0310199       26.435159
       2.0316899       27.098725
       2.0323701       27.190710
       2.0330501       27.208169
       2.0337200       27.293683
       2.0344000       27.285554
       2.0350800       26.711312
       2.0357599       27.481161
       2.0364399       27.664814
       2.0371201       27.675043
       2.0377901       27.517829
       2.0384700       27.017498
       2.0391500       27.970995
       2.0398300       28.150873
       2.0405099       27.966219
       2.0411899       28.215693
       2.0418701       27.879383
       2.0425501       28.427337
       2.0432401       28.490166
       2.0439200       28.679125
       2.0446000       28.754096
       2.0452800       28.751888
       2.0459599       28.849928
       2.0466399       29.018217
       2.0473299       29.049262
       2.0480101       29.092558
       2.0486901       29.278475
       2.0493701       29.376364
       2.0500600       29.464263
       2.0507400       29.564747
       2.0514200       29.535385
       2.0521100       29.619721
       2.0527899       29.260538
       2.0534799       29.833388
       2.0541601       29.707102
       2.0548401       30.020813
       2.0555301       30.181298
       2.0562201       30.216570
       2.0569000       30.358523
       2.0575900       30.406570
       2.0582700       30.544081
       2.0589600       30.328501
       2.0596399       30.673036
       2.0603299       30.493531
       2.0610199       29.935929
       2.0617099       31.005418
       2.0623901       31.004182
       2.0630801       31.162327
       2.0637701       29.187349
       2.0644500       31.388837
       2.0651400       31.476985
       2.0658300       31.565820
       2.0665200       31.654251
       2.0672100       31.511335
       2.0678999       31.118267
       2.0685899       31.801284
       2.0692799       32.016784
       2.0699699       31.981394
       2.0706601       31.314786
       2.0713501       32.053827
       2.0720401       32.034761
       2.0727301       32.436279
       2.0734200       32.560564
       2.0741100       32.405490
       2.0748000       32.771191
       2.0754900       32.793010
       2.0761800       32.742095
       2.0768800       32.687563
       2.0775700       32.330819
       2.0782599       33.228883
       2.0789599       33.393398
       2.0796499       33.457463
       2.0803399       33.425724
       2.0810299       33.436493
       2.0817299       33.714786
       2.0824201       33.739266
       2.0831201       33.415173
       2.0838101       33.561553
       2.0845101       33.598826
       2.0852001       34.017804
       2.0858901       34.280870
       2.0865901       34.375905
       2.0872900       34.372552
       2.0879800       34.592722
       2.0886800       34.490342
       2.0893700       34.712652
       2.0900700       34.698402
       2.0907700       35.058341
       2.0914600       35.118680
       2.0921600       33.926358
       2.0928600       35.150610
       2.0935600       35.457759
       2.0942500       35.453442
       2.0949500       35.670938
       2.0956500       35.723441
       2.0963500       35.790326
       2.0970500       35.736015
       2.0977499       35.898692
       2.0984499       36.131288
       2.0991399       36.020508
       2.0998399       36.194731
       2.1005399       36.500212
       2.1012399       36.287840
       2.1019399       36.535916
       2.1026499       35.940360
       2.1033499       36.858112
       2.1040499       37.028520
       2.1047499       37.130388
       2.1054499       37.223663
       2.1061499       37.216085
       2.1068499       37.200490
       2.1075599       37.111684
       2.1082599       37.546436
       2.1089599       37.622885
       2.1096699       37.231996
       2.1103699       37.862497
       2.1110699       37.880219
       2.1117799       38.077138
       2.1124799       38.268394
       2.1131799       38.178982
       2.1138899       38.417053
       2.1145899       38.180331
       2.1152999       38.662977
       2.1159999       38.285314
       2.1167099       38.019607
       2.1174099       38.912547
       2.1181200       38.914082
       2.1188300       39.207197
       2.1195300       37.649772
       2.1202400       38.980473
       2.1209400       39.543899
       2.1216500       38.767214
       2.1223600       39.550037
       2.1230700       39.438047
       2.1237800       39.094140
       2.1244800       39.853618
       2.1251900       40.121679
       2.1259000       40.268539
       2.1266100       38.938653
       2.1273201       40.490276
       2.1280301       40.219453
       2.1287401       40.644700
       2.1294401       40.804727
       2.1301501       40.339668
       2.1308601       41.035231
       2.1315701       41.196086
       2.1322899       41.084456
       2.1329999       41.403282
       2.1337099       41.489582
       2.1344199       41.541235
       2.1351299       41.718949
       2.1358399       40.651955
       2.1365499       41.968320
       2.1372700       41.921869
       2.1379800       42.142294
       2.1386900       42.254243
       2.1394000       42.037523
       2.1401200       42.461069
       2.1408300       42.591044
       2.1415401       42.597820
       2.1422601       42.844976
       2.1429701       42.959192
       2.1436901       42.532435
       2.1443999       42.863822
       2.1451199       43.242269
       2.1458299       43.101362
       2.1465399       43.179934
       2.1472600       43.583156
       2.1479800       43.562880
       2.1486900       43.738831
       2.1494100       43.787884
       2.1501200       43.947776
       2.1508400       44.112132
       2.1515601       44.187436
       2.1522801       44.192195
       2.1529901       44.044072
       2.1537099       44.318044
       2.1544299       44.298535
       2.1551499       44.538831
       2.1558700       44.667384
       2.1565800       44.790847
       2.1573000       44.764726
       2.1580200       44.901364
       2.1587400       44.960633
       2.1594601       44.840518
       2.1601801       44.916639
       2.1609001       44.950426
       2.1616199       44.483535
       2.1623399       44.438551
       2.1630599       44.243988
       2.1637800       43.597366
       2.1645100       42.615438
       2.1652300       40.848721
       2.1659501       36.113040
       2.1666701       39.503253
       2.1673901       42.411826
       2.1681199       43.473245
       2.1688399       44.875299
       2.1695600       45.006824
       2.1702800       45.802269
       2.1710100       46.472678
       2.1717300       46.552430
       2.1724601       47.062231
       2.1731801       47.173702
       2.1738999       47.411723
       2.1746299       47.500414
       2.1753500       47.622064
       2.1760800       47.763818
       2.1768000       47.632167
       2.1775301       48.298246
       2.1782601       46.918196
       2.1789801       48.516125
       2.1797099       48.661099
       2.1804299       49.020335
       2.1811600       49.163908
       2.1818900       49.278288
       2.1826100       48.095026
       2.1833401       49.558154
       2.1840701       49.568735
       2.1847999       49.863173
       2.1855299       49.947785
       2.1862500       50.061522
       2.1869800       50.251447
       2.1877100       49.866880
       2.1884401       48.881988
       2.1891699       50.667739
       2.1898999       50.428849
       2.1906300       50.773695
       2.1913600       50.915165
       2.1920900       51.183731
       2.1928201       51.295493
       2.1935501       51.391137
       2.1942799       51.569344
       2.1950200       51.419171
       2.1957500       51.808341
       2.1964800       51.994806
       2.1972101       52.018430
       2.1979401       52.201310
       2.1986799       52.348365
       2.1994100       52.502846
       2.2001400       52.373207
       2.2008801       52.725941
       2.2016101       52.715247
       2.2023399       52.938851
       2.2030799       52.988980
       2.2038100       53.054245
       2.2045500       53.103226
       2.2052801       53.460681
       2.2060201       52.411903
       2.2067499       51.833838
       2.2074900       53.768967
       2.2082200       53.800382
       2.2089601       53.251446
       2.2097001       54.363944
       2.2104299       54.354775
       2.2111700       54.399463
       2.2119100       54.484709
       2.2126400       54.777908
       2.2133801       55.036709
       2.2141199       55.183453
       2.2148600       55.255119
       2.2156000       55.384989
       2.2163301       53.890687
       2.2170701       54.648370
       2.2178099       55.786735
       2.2185500       55.880979
       2.2192900       56.129344
       2.2200301       56.199808
       2.2207699       56.375317
       2.2215099       56.457692
       2.2222500       56.644693
       2.2229900       56.741893
       2.2237301       56.910206
       2.2244699       56.942023
       2.2252200       57.202573
       2.2259600       56.889554
       2.2267001       57.052932
       2.2274401       57.608864
       2.2281799       57.363391
       2.2289300       57.883429
       2.2296700       58.022296
       2.2304101       57.938789
       2.2311599       58.101608
       2.2319000       58.437972
       2.2326500       58.452673
       2.2333901       58.699547
       2.2341299       58.755969
       2.2348800       58.915580
       2.2356200       59.126371
       2.2363701       59.228057
       2.2371099       59.387114
       2.2378600       59.409467
       2.2386000       58.930748
       2.2393501       59.609559
       2.2400999       59.712849
       2.2408400       60.109568
       2.2415900       60.219999
       2.2423401       59.968855
       2.2430899       60.327855
       2.2438300       60.602849
       2.2445800       60.715839
       2.2453301       60.946343
       2.2460799       60.999401
       2.2468300       61.226246
       2.2475801       60.693084
       2.2483201       61.144461
       2.2490699       61.612680
       2.2498200       61.688150
       2.2505701       61.951061
       2.2513199       61.358096
       2.2520700       62.221580
       2.2528300       61.618136
       2.2535801       62.057693
       2.2543299       60.758913
       2.2550800       62.644085
       2.2558300       61.976214
       2.2565801       63.056321
       2.2573299       62.242591
       2.2580900       62.998879
       2.2588401       63.517951
       2.2595899       63.622958
       2.2603500       63.669953
       2.2611001       63.653873
       2.2618501       63.953746
       2.2626100       63.314097
       2.2633600       63.842688
       2.2641201       64.514282
       2.2648699       63.946229
       2.2656200       64.232287
       2.2663801       64.717224
       2.2671399       64.893929
       2.2678900       65.213745
       2.2686501       65.394710
       2.2693999       65.436990
       2.2701600       65.615406
       2.2709200       65.809489
       2.2716701       64.476564
       2.2724299       65.996340
       2.2731900       66.234897
       2.2739501       66.394926
       2.2746999       65.941763
       2.2754600       66.466303
       2.2762201       66.732567
       2.2769799       66.868870
       2.2777400       67.110545
       2.2785001       67.165438
       2.2792599       67.351296
       2.2800200       66.810929
       2.2807801       67.593057
       2.2815399       64.575915
       2.2823000       68.015026
       2.2830601       67.765185
       2.2838199       68.003211
       2.2845800       68.377084
       2.2853401       68.476661
       2.2860999       68.410280
       2.2868700       68.729517
       2.2876301       68.947659
       2.2883899       69.177245
       2.2891500       68.845914
       2.2899201       69.513603
       2.2906799       69.693168
       2.2914400       68.948094
       2.2922101       69.888399
       2.2929699       70.039366
       2.2937400       69.936586
       2.2945001       70.360047
       2.2952700       70.572678
       2.2960300       70.350147
       2.2967999       69.756882
       2.2975600       70.981749
       2.2983301       71.182480
       2.2990899       70.991878
       2.2998600       71.502033
       2.3006301       71.528694
       2.3013899       71.851150
       2.3021600       72.014329
       2.3029301       71.940619
       2.3037000       72.151748
       2.3044600       72.322583
       2.3052299       72.468737
       2.3060000       72.760825
       2.3067701       72.916256
       2.3075399       73.029708
       2.3083100       73.218565
       2.3090799       73.408002
       2.3098500       73.457632
       2.3106201       73.627973
       2.3113899       73.841887
       2.3121600       73.961896
       2.3129301       74.159129
       2.3137000       74.045226
       2.3144701       74.454608
       2.3152399       73.848551
       2.3160100       74.614851
       2.3167801       74.600965
       2.3175600       75.093747
       2.3183300       75.048399
       2.3190999       74.760715
       2.3198800       75.513816
       2.3206501       75.691342
       2.3214200       75.863352
       2.3222001       75.924550
       2.3229699       76.075656
       2.3237400       76.224799
       2.3245201       76.390456
       2.3252900       76.190385
       2.3260701       76.720049
       2.3268499       76.896501
       2.3276200       77.087585
       2.3283999       77.163887
       2.3291700       77.378809
       2.3299501       77.530125
       2.3307300       77.671279
       2.3315001       77.633973
       2.3322799       77.999036
       2.3330600       78.110545
       2.3338301       78.122618
       2.3346100       78.478780
       2.3353901       77.495320
       2.3361700       78.695119
       2.3369501       78.827172
       2.3377299       79.004220
       2.3385100       77.238590
       2.3392799       79.296287
       2.3400600       79.476061
       2.3408401       79.496439
       2.3416200       79.759752
       2.3424101       79.970849
       2.3431900       80.072781
       2.3439701       80.252158
       2.3447499       80.611158
       2.3455300       80.822234
       2.3463099       80.796914
       2.3470900       81.228096
       2.3478799       81.153082
       2.3486600       81.112090
       2.3494401       81.571472
       2.3502300       81.640069
       2.3510101       81.815561
       2.3517900       81.996671
       2.3525801       82.181681
       2.3533599       82.392038
       2.3541501       82.606129
       2.3549299       82.655641
       2.3557100       82.872876
       2.3564999       83.047660
       2.3572900       82.357296
       2.3580699       82.790254
       2.3588600       83.524077
       2.3596399       83.726664
       2.3604300       83.813267
       2.3612199       83.751882
       2.3620000       84.030658
       2.3627901       84.327559
       2.3635800       84.418401
       2.3643701       84.606459
       2.3651600       84.828716
       2.3659401       84.982135
       2.3667300       85.113716
       2.3675201       85.276197
       2.3683100       85.354897
       2.3691001       85.378634
       2.3698900       85.290212
       2.3706801       85.931315
       2.3714700       86.052681
       2.3722601       86.014425
       2.3730500       85.912171
       2.3738401       85.125606
       2.3746300       83.703926
       2.3754301       86.599884
       2.3762200       86.968558
       2.3770101       86.913825
       2.3778000       87.426577
       2.3785901       87.593200
       2.3793900       87.690202
       2.3801799       87.842263
       2.3809700       88.120970
       2.3817699       88.218486
       2.3825600       88.491141
       2.3833599       88.568532
       2.3841500       87.745192
       2.3849399       87.529266
       2.3857400       88.682595
       2.3865299       87.135712
       2.3873301       89.288989
       2.3881199       89.594078
       2.3889201       89.715991
       2.3897200       89.749654
       2.3905201       90.123993
       2.3913100       90.268055
       2.3921101       90.523009
       2.3929100       90.238910
       2.3936999       90.829171
       2.3945000       90.970270
       2.3952999       91.235215
       2.3961000       90.934848
       2.3968999       91.497466
       2.3977001       91.661605
       2.3984900       91.531568
       2.3992901       91.879559
       2.4000900       91.614131
       2.4008901       91.584074
       2.4016900       92.491099
       2.4024899       92.501969
       2.4033000       92.703290
       2.4040999       93.071251
       2.4049001       92.948619
       2.4057000       92.916501
       2.4065001       93.653195
       2.4073000       93.662112
       2.4081099       93.965022
       2.4089100       93.899103
       2.4097099       94.310180
       2.4105201       94.537298
       2.4113200       94.596425
       2.4121201       94.697348
       2.4129300       94.781210
       2.4137299       95.098274
       2.4145401       95.078894
       2.4153399       94.965952
       2.4161501       91.748288
       2.4169500       95.336413
       2.4177599       95.914236
       2.4185600       96.166636
       2.4193699       96.334767
       2.4201701       96.480352
       2.4209800       96.831401
       2.4217899       96.988232
       2.4226000       96.930973
       2.4233999       97.035566
       2.4242101       96.769935
       2.4250200       97.228238
       2.4258299       97.902682
       2.4266400       98.076726
       2.4274499       97.353746
       2.4282501       98.120250
       2.4290600       98.330918
       2.4298699       97.937257
       2.4306800       98.670173
       2.4314899       98.832477
       2.4323001       99.048993
       2.4331200       99.384954
       2.4339299       98.563852
       2.4347401       99.093462
       2.4355500       98.541757
       2.4363599       100.05478
       2.4371700       100.03546
       2.4379799       99.333468
       2.4388001       100.78356
       2.4396100       100.74979
       2.4404199       101.09003
       2.4412401       101.09937
       2.4420500       100.98553
       2.4428699       101.57164
       2.4436800       101.60427
       2.4444900       101.82872
       2.4453101       101.92555
       2.4461200       101.92670
       2.4469399       102.19557
       2.4477501       102.10507
       2.4485700       102.25205
       2.4493899       102.39488
       2.4502001       102.84212
       2.4510200       101.83092
       2.4518399       101.96232
       2.4526501       102.81766
       2.4534700       103.84206
       2.4542899       103.67068
       2.4551101       103.25628
       2.4559300       103.67546
       2.4567399       104.34689
       2.4575601       101.50108
       2.4583800       104.80371
       2.4591999       105.43335
       2.4600201       105.66708
       2.4608400       105.86219
       2.4616599       106.03259
       2.4624801       106.09089
       2.4633000       106.13636
       2.4641199       106.23954
       2.4649501       106.59213
       2.4657700       105.90451
       2.4665899       106.53801
       2.4674101       106.81029
       2.4682300       106.84099
       2.4690599       106.47109
       2.4698801       103.56025
       2.4707000       106.47006
       2.4715300       107.56938
       2.4723499       107.74365
       2.4731700       107.18096
       2.4740000       107.47809
       2.4748299       108.68385
       2.4756501       108.67342
       2.4764700       108.13506
       2.4772999       109.16966
       2.4781301       109.18309
       2.4789500       109.26996
       2.4797800       110.06551
       2.4806001       107.65148
       2.4814301       110.28531
       2.4822600       107.44180
       2.4830899       110.80403
       2.4839101       111.01719
       2.4847400       111.22693
       2.4855700       111.27430
       2.4863999       107.20805
       2.4872301       110.87343
       2.4880600       110.14711
       2.4888899       111.65876
       2.4897201       111.64839
       2.4905500       111.76292
       2.4913800       111.98168
       2.4922099       112.15842
       2.4930401       111.49503
       2.4938700       112.23041
       2.4947000       111.99593
       2.4955299       112.19120
       2.4963601       111.63927
       2.4971900       113.31191
       2.4980299       113.27548
       2.4988599       112.94188
       2.4996600       113.77205
       2.5005200       113.51111
       2.5013599       113.86867
       2.5021901       112.94092
       2.5030200       115.17102
       2.5038600       115.54411
       2.5046999       115.18997
       2.5055301       115.98572
       2.5063601       116.07527
       2.5072000       116.25295
       2.5080400       115.55085
       2.5088699       115.25167
       2.5097101       116.39963
       2.5105500       116.19110
       2.5113900       117.15279
       2.5122199       117.31626
       2.5130601       117.64307
       2.5139000       117.45103
       2.5147400       118.07548
       2.5155699       118.22950
       2.5164101       118.12435
       2.5172501       117.90888
       2.5180900       116.85494
       2.5189199       118.60626
       2.5197599       118.52651
       2.5206101       119.04682
       2.5214500       119.06670
       2.5222900       119.07068
       2.5231199       119.12507
       2.5239699       118.96340
       2.5248101       118.80417
       2.5256500       118.46173
       2.5264900       118.49907
       2.5273399       119.46867
       2.5281799       119.78943
       2.5290201       120.11233
       2.5298600       120.86615
       2.5307100       120.57652
       2.5315499       121.60741
       2.5323901       121.76338
       2.5332401       122.00792
       2.5340800       121.86642
       2.5349300       122.63082
       2.5357699       121.98067
       2.5366199       122.64511
       2.5374601       122.00990
       2.5383101       122.17797
       2.5391600       123.10787
       2.5400100       123.22497
       2.5408499       123.52297
       2.5416901       119.85804
       2.5425401       122.25598
       2.5433900       124.47073
       2.5442400       124.66483
       2.5450900       123.53659
       2.5459299       125.22227
       2.5467801       124.82341
       2.5476301       125.22058
       2.5484800       125.12654
       2.5493300       125.22998
       2.5501800       124.89667
       2.5510299       124.45981
       2.5518799       124.15884
       2.5527301       125.17288
       2.5535800       125.95790
       2.5544300       124.94038
       2.5552800       125.54559
       2.5561399       124.44120
       2.5569899       124.82102
       2.5578401       126.23963
       2.5586901       126.29957
       2.5595400       127.21520
       2.5604000       126.86276
       2.5612600       127.07549
       2.5621099       124.97815
       2.5629599       126.02835
       2.5638199       125.88274
       2.5646701       125.45010
       2.5655200       127.28256
       2.5663800       127.94393
       2.5672400       125.86677
       2.5680900       128.86702
       2.5689499       128.56413
       2.5698099       129.49948
       2.5706601       129.03948
       2.5715201       130.58747
       2.5723701       130.34141
       2.5732300       131.31511
       2.5740900       131.45055
       2.5749500       130.68372
       2.5758100       131.74468
       2.5766599       131.32564
       2.5775199       132.19182
       2.5783899       132.72157
       2.5792401       132.63726
       2.5801001       133.13359
       2.5809600       133.33367
       2.5818300       133.74061
       2.5826900       133.72761
       2.5835500       133.31200
       2.5844100       131.33288
       2.5852599       131.64456
       2.5861199       129.80738
       2.5869901       134.55657
       2.5878501       135.17962
       2.5887101       135.05923
       2.5895700       135.41028
       2.5904400       135.76633
       2.5913000       135.89822
       2.5921700       136.16724
       2.5930400       134.57878
       2.5939000       136.21765
       2.5947599       136.63709
       2.5956199       136.45418
       2.5964899       136.02896
       2.5973599       136.82684
       2.5982201       137.34368
       2.5990901       137.32687
       2.5999601       136.84181
       2.6008201       137.73433
       2.6016901       137.04145
       2.6025600       138.01594
       2.6034200       137.84849
       2.6042900       138.20585
       2.6051600       138.26868
       2.6060300       137.43803
       2.6069000       138.13734
       2.6077700       138.19083
       2.6086400       138.06096
       2.6095099       137.37825
       2.6103699       137.02022
       2.6112399       136.63773
       2.6121199       135.50848
       2.6129899       135.58306
       2.6138599       136.85186
       2.6147299       137.87153
       2.6156001       138.76837
       2.6164701       139.19128
       2.6173401       139.61012
       2.6182201       139.05989
       2.6190901       139.63047
       2.6199601       139.79871
       2.6208301       139.45819
       2.6217101       138.90170
       2.6225801       135.67349
       2.6234601       136.04600
       2.6243300       132.75311
       2.6252100       124.70622
       2.6260800       116.04089
       2.6269600       130.58314
       2.6278300       135.78714
       2.6287100       138.25550
       2.6295800       140.36322
       2.6304600       141.71776
       2.6313400       142.22117
       2.6322200       142.79724
       2.6330900       143.40766
       2.6339700       143.68441
       2.6348500       144.77983
       2.6357300       145.24475
       2.6366100       145.53609
       2.6374800       145.48708
       2.6383600       146.10409
       2.6392400       145.88289
       2.6401200       140.41843
       2.6410100       146.55269
       2.6418800       146.97698
       2.6427600       144.71232
       2.6436400       147.69253
       2.6445200       147.78540
       2.6454101       147.61967
       2.6462901       147.91982
       2.6471701       148.30963
       2.6480501       147.71681
       2.6489401       149.01593
       2.6498201       149.09233
       2.6507001       147.32657
       2.6515901       149.68644
       2.6524701       149.64446
       2.6533501       150.13765
       2.6542399       146.95084
       2.6551199       149.06627
       2.6560099       150.58977
       2.6568899       150.77691
       2.6577699       151.06429
       2.6586599       151.18015
       2.6595500       151.44660
       2.6604400       151.44051
       2.6613200       151.72072
       2.6622100       149.99209
       2.6631000       151.94386
       2.6639900       151.34624
       2.6648700       146.49767
       2.6657600       152.37245
       2.6666501       150.17827
       2.6675401       152.27022
       2.6684201       152.33611
       2.6693201       152.52534
       2.6702099       151.58174
       2.6710999       150.65262
       2.6719899       151.67614
       2.6728799       151.63154
       2.6737700       150.39003
       2.6746600       147.63710
       2.6755500       147.72068
       2.6764400       150.12511
       2.6773400       151.46985
       2.6782300       151.89593
       2.6791201       152.97116
       2.6800201       153.22815
       2.6809101       154.72457
       2.6818099       155.59653
       2.6826999       155.73658
       2.6835899       155.40152
       2.6844900       155.68168
       2.6853800       155.30869
       2.6862800       155.86648
       2.6871700       155.29211
       2.6880701       155.33499
       2.6889601       155.13475
       2.6898601       155.05520
       2.6907599       154.57298
       2.6916599       154.30804
       2.6925499       153.39360
       2.6934400       152.25411
       2.6943400       151.46816
       2.6952400       149.44620
       2.6961401       147.77231
       2.6970401       146.64986
       2.6979401       144.86358
       2.6988399       143.54397
       2.6997399       143.38788
       2.7006400       143.10391
       2.7015400       142.86816
       2.7024400       143.40433
       2.7033401       144.48324
       2.7042401       145.95366
       2.7051401       147.28412
       2.7060399       148.92406
       2.7069399       147.91341
       2.7078500       149.71285
       2.7087600       150.79339
       2.7096601       151.05144
       2.7105601       151.51398
       2.7114601       149.05173
       2.7123699       150.95030
       2.7132699       151.06633
       2.7141700       150.95800
       2.7150800       150.56109
       2.7159801       150.61000
       2.7168901       150.39904
       2.7177899       150.08375
       2.7186999       148.97948
       2.7196100       147.43220
       2.7205100       147.46005
       2.7214200       147.33699
       2.7223201       147.03622
       2.7232399       146.17409
       2.7241399       146.07493
       2.7250500       145.60804
       2.7259600       145.47204
       2.7268701       142.89223
       2.7277701       145.08438
       2.7286899       145.21550
       2.7295899       144.95894
       2.7305000       144.42517
       2.7314100       144.11243
       2.7323201       143.67836
       2.7332399       143.15878
       2.7341499       142.95087
       2.7350600       143.03278
       2.7359700       142.71285
       2.7368901       142.93705
       2.7377999       142.73816
       2.7387099       140.80070
       2.7396200       142.31737
       2.7405400       143.93648
       2.7414501       145.43963
       2.7423601       146.50786
       2.7432699       146.87500
       2.7441900       147.17212
       2.7451000       148.54130
       2.7460201       149.76307
       2.7469399       150.51048
       2.7478499       151.79430
       2.7487600       153.09532
       2.7496800       154.31800
       2.7506001       155.83362
       2.7515099       157.38467
       2.7524300       158.89325
       2.7533500       160.35669
       2.7542701       160.61798
       2.7551899       160.05406
       2.7561100       158.93637
       2.7570300       157.62268
       2.7579401       155.25218
       2.7588601       158.16132
       2.7597799       162.30582
       2.7607000       164.68881
       2.7616200       165.84001
       2.7625401       165.95324
       2.7634599       166.82773
       2.7643800       167.32885
       2.7653100       167.52650
       2.7662301       168.16594
       2.7671499       169.11769
       2.7680700       168.98436
       2.7689900       168.76433
       2.7699201       168.06380
       2.7708399       167.99858
       2.7717700       167.32357
       2.7726901       166.57501
       2.7736101       166.53468
       2.7745299       166.75473
       2.7754600       164.33175
       2.7763801       164.50356
       2.7773099       163.25167
       2.7782400       161.41991
       2.7791700       160.28789
       2.7800901       160.28176
       2.7810199       160.09469
       2.7819400       157.97768
       2.7828701       157.75467
       2.7837999       157.98889
       2.7847300       156.88229
       2.7856600       156.42472
       2.7865801       155.65316
       2.7875099       154.60201
       2.7884400       153.76642
       2.7893701       152.75113
       2.7902999       151.74679
       2.7912300       151.11764
       2.7921600       150.18911
       2.7930901       148.94190
       2.7940199       147.69414
       2.7949600       146.50459
       2.7958901       145.17184
       2.7968199       143.84363
       2.7977500       143.00036
       2.7986801       141.86654
       2.7996099       140.87008
       2.8005500       139.44017
       2.8014801       138.09713
       2.8024099       136.78870
       2.8033500       135.56705
       2.8042901       134.08368
       2.8052199       133.19171
       2.8061500       131.95067
       2.8070900       130.34071
       2.8080201       128.73962
       2.8089600       126.96925
       2.8099000       125.95028
       2.8108399       124.84326
       2.8117700       123.38597
       2.8127100       121.69380
       2.8136499       119.77809
       2.8145900       118.56342
       2.8155200       117.14240
       2.8164599       115.76273
       2.8174000       113.85994
       2.8183401       112.03759
       2.8192699       110.27447
       2.8202200       109.13762
       2.8211601       108.16691
       2.8220999       106.50066
       2.8230400       104.62745
       2.8239801       102.82803
       2.8249199       101.44052
       2.8258600       100.45812
       2.8268099       99.203045
       2.8277500       97.658663
       2.8286901       96.102970
       2.8296299       94.238830
       2.8305700       92.306142
       2.8315201       91.426020
       2.8324599       90.306053
       2.8334100       88.514239
       2.8343501       86.859382
       2.8352900       85.591373
       2.8362401       84.493436
       2.8371899       83.101341
       2.8381300       81.600960
       2.8390801       80.266768
       2.8400199       78.664579
       2.8409700       75.996967
       2.8419199       76.154957
       2.8428700       74.952835
       2.8438201       73.509044
       2.8447599       71.877924
       2.8457100       70.881592
       2.8466599       69.574710
       2.8476100       68.252596
       2.8485601       66.951095
       2.8495100       65.650228
       2.8504601       64.391532
       2.8514099       62.622554
       2.8523600       61.316117
       2.8533101       60.139749
       2.8542600       58.554052
       2.8552101       57.630835
       2.8561599       56.251177
       2.8571200       54.996903
       2.8580699       53.927285
       2.8590200       52.753674
       2.8599701       51.357324
       2.8609200       50.363380
       2.8618801       48.965822
       2.8628299       47.463875
       2.8637900       46.565436
       2.8647399       45.526390
       2.8656900       44.245291
       2.8666501       42.873657
       2.8676100       41.578514
       2.8685601       40.623968
       2.8695199       39.636036
       2.8704700       37.691354
       2.8714299       36.240815
       2.8723900       34.076021
       2.8733499       32.753738
       2.8743100       33.227976
       2.8752601       33.162612
       2.8762200       32.880552
       2.8771801       32.108573
       2.8781400       31.269435
       2.8791001       30.483677
       2.8800600       29.835827
       2.8810201       29.148473
       2.8819699       28.208479
       2.8829401       27.479053
       2.8838999       26.677070
       2.8848600       25.824894
       2.8858199       25.243151
       2.8867900       24.793360
       2.8877499       23.941315
       2.8887100       23.217643
       2.8896699       22.796045
       2.8906400       22.230008
       2.8915999       21.713008
       2.8925600       21.143556
       2.8935201       20.491314
       2.8944900       19.886620
       2.8954599       19.382054
       2.8964300       18.975831
       2.8973899       18.541074
       2.8983600       17.975327
       2.8993199       17.443172
       2.9002900       16.853374
       2.9012499       16.429077
       2.9022200       16.078146
       2.9031899       15.688731
       2.9041600       15.337818
       2.9051199       14.921188
       2.9060900       14.486648
       2.9070599       14.301486
       2.9080300       13.978575
       2.9089999       13.676092
       2.9099700       13.352748
       2.9109399       13.043928
       2.9119101       12.725227
       2.9128799       12.396083
       2.9138501       12.143183
       2.9148200       11.875820
       2.9157901       11.391941
       2.9167700       11.258308
       2.9177401       10.986599
       2.9187100       10.733724
       2.9196801       10.469939
       2.9206600       10.162826
       2.9216299       9.8994667
       2.9226100       9.5958906
       2.9235799       9.3044316
       2.9245601       9.0971588
       2.9255300       8.8542696
       2.9265101       8.5650064
       2.9274800       8.3879670
       2.9284599       8.0880521
       2.9294300       7.9374615
       2.9304099       7.7277018
       2.9313800       7.5487738
       2.9323599       7.3868977
       2.9333401       7.1981892
       2.9343200       7.0385720
       2.9352901       6.8642153
       2.9362700       6.7215046
       2.9372499       6.6168869
       2.9382300       6.4562382
       2.9392099       6.3840311
       2.9401901       6.2506635
       2.9411700       6.1240195
       2.9421501       6.0168700
       2.9431300       5.8954432
       2.9441099       5.8028602
       2.9450901       5.7079634
       2.9460700       5.6065251
       2.9470601       5.4619663
       2.9480400       5.4414674
       2.9490199       5.3447946
       2.9500101       5.2615021
       2.9509900       5.1828481
       2.9519701       5.1066233
       2.9529600       5.0338819
       2.9539399       4.9703671
       2.9549201       4.9135607
       2.9559100       4.8555193
       2.9568999       4.8010197
       2.9578800       4.7543208
       2.9588599       4.7162803
       2.9598501       4.6888301
       2.9608400       4.6579276
       2.9618199       4.6237777
       2.9628100       4.5983259
       2.9638000       4.5574970
       2.9647901       4.5180854
       2.9657800       4.5070376
       2.9667599       4.4898314
       2.9677501       4.4517513
       2.9687400       4.4222056
       2.9697399       4.4043157
       2.9707201       4.3745537
       2.9717100       4.3433769
       2.9727099       4.3184797
       2.9737000       4.2932672
       2.9746900       4.2599151
       2.9756701       4.2271247
       2.9766700       4.2033891
       2.9776599       4.1756646
       2.9786601       4.1260455
       2.9796500       4.1052572
       2.9806399       4.0941377
       2.9816401       4.0630341
       2.9826300       4.0231811
       2.9836199       3.9936324
       2.9846201       3.9639398
       2.9856100       3.9289452
       2.9866099       3.8946031
       2.9876101       3.8550164
       2.9886000       3.8309260
       2.9895899       3.8000306
       2.9905901       3.7815739
       2.9915900       3.7543092
       2.9925799       3.7193920
       2.9935801       3.6794834
       2.9945800       3.6643395
       2.9955800       3.6435153
       2.9965799       3.5677448
       2.9975801       3.5717243
       2.9985800       3.5441172
       2.9995799       3.5134152
       3.0005801       3.4566501
       3.0015700       3.4690952
       3.0025799       3.4381847
       3.0035801       3.4124260
       3.0045800       3.3857635
       3.0055799       3.3601869
       3.0065801       3.3319497
       3.0075800       3.3047138
       3.0085800       3.2743352
       3.0095799       3.2276838
       3.0105901       3.2211434
       3.0116000       3.1889079
       3.0125999       3.1586228
       3.0136001       3.1346589
       3.0146101       3.0974349
       3.0156100       3.0884183
       3.0166199       3.0526558
       3.0176201       3.0425242
       3.0186300       3.0296003
       3.0196300       3.0127572
       3.0206399       2.9812079
       3.0216401       2.9793216
       3.0226600       2.9724324
       3.0236700       2.9560360
       3.0246699       2.9423445
       3.0256801       2.9453367
       3.0266800       2.9176216
       3.0276999       2.9087502
       3.0287099       2.9110416
       3.0297101       2.8973393
       3.0307300       2.8905712
       3.0317400       2.8701376
       3.0327401       2.8305593
       3.0337601       2.8455315
       3.0347700       2.8296472
       3.0357800       2.8086910
       3.0367899       2.7648022
       3.0378101       2.7036934
       3.0388200       2.5580796
       3.0398300       2.6080682
       3.0408399       2.7309486
       3.0418601       2.7736988
       3.0428700       2.8067172
       3.0438800       2.8202007
       3.0448999       2.8162088
       3.0459099       2.8394166
       3.0469301       2.8460570
       3.0479500       2.8533576
       3.0489700       2.8539773
       3.0499799       2.8628665
       3.0509901       2.8751506
       3.0520101       2.8752281
       3.0530300       2.8892939
       3.0540500       2.8917985
       3.0550599       2.8890816
       3.0560801       2.9123786
       3.0571001       2.9062053
       3.0581200       2.9206363
       3.0591400       2.9492521
       3.0601599       2.9528919
       3.0611801       2.9649946
       3.0622001       2.9710431
       3.0632200       2.9879706
       3.0642400       2.9617790
       3.0652599       3.0182440
       3.0662899       3.0331706
       3.0673101       3.0445010
       3.0683300       3.0418448
       3.0693500       3.0792485
       3.0703700       3.0837803
       3.0713999       3.1162625
       3.0724299       3.1263908
       3.0734501       3.1467106
       3.0744700       3.1704553
       3.0755000       3.1997082
       3.0765200       3.2154581
       3.0775499       3.2399431
       3.0785799       3.2776309
       3.0796001       3.2983078
       3.0806201       3.3080072
       3.0816500       3.3459947
       3.0826800       3.3786959
       3.0837100       3.4070035
       3.0847299       3.4480688
       3.0857601       3.4467606
       3.0867901       3.4851432
       3.0878201       3.5529282
       3.0888500       3.5906867
       3.0898800       3.6182854
       3.0909100       3.6419184
       3.0919399       3.6878330
       3.0929699       3.7255005
       3.0940001       3.7766739
       3.0950301       3.8171818
       3.0960600       3.8409325
       3.0971000       3.8954485
       3.0981300       3.8677314
       3.0991600       3.9824119
       3.1001999       4.0361261
       3.1012299       4.0771659
       3.1022601       4.1215332
       3.1032901       4.1747669
       3.1043200       4.2215400
       3.1053600       4.2727941
       3.1064000       4.3308044
       3.1074300       4.3561365
       3.1084700       4.4469811
       3.1095099       4.5045581
       3.1105499       4.5645599
       3.1115799       4.6170391
       3.1126201       4.6787901
       3.1136501       4.6982172
       3.1146901       4.6898016
       3.1157300       4.7432489
       3.1167700       4.9151408
       3.1178100       5.0159849
       3.1188400       5.0678628
       3.1198900       5.1364600
       3.1209300       5.2051753
       3.1219599       5.2772453
       3.1230099       5.3631071
       3.1240499       5.4238798
       3.1250899       5.4805554
       3.1261301       5.5666077
       3.1271801       5.6196928
       3.1282201       5.7134670
       3.1292601       5.7316792
       3.1303000       5.8462235
       3.1313500       5.9644660
       3.1323900       6.0310797
       3.1334300       6.1177017
       3.1344800       6.2076731
       3.1355200       6.2850947
       3.1365700       6.3904059
       3.1376200       6.4345814
       3.1386600       6.5635721
       3.1396999       6.6103337
       3.1407499       6.7212645
       3.1417999       6.8553584
       3.1428499       6.9376538
       3.1438999       7.0369309
       3.1449399       7.1466792
       3.1459899       7.2616481
       3.1470399       7.3105646
       3.1480899       7.4576864
       3.1491399       7.5628647
       3.1501901       7.6706178
       3.1512401       7.6445834
       3.1522901       7.8484761
       3.1533401       8.0003852
       3.1543901       8.1021679
       3.1554401       8.2313008
       3.1564901       8.3522427
       3.1575501       8.4702189
       3.1586001       8.5881126
       3.1596501       8.6930226
       3.1607001       8.8314773
       3.1617601       8.9469411
       3.1628201       9.0563259
       3.1638701       9.2284050
       3.1649201       9.3459808
       3.1659701       9.4999066
       3.1670301       9.6163583
       3.1680901       9.7120338
       3.1691501       9.8938297
       3.1702001       9.8893469
       3.1712501       10.168375
       3.1723101       10.312622
       3.1733699       10.455922
       3.1744299       10.620548
       3.1754799       10.773678
       3.1765499       10.896295
       3.1776099       11.079944
       3.1786599       11.139905
       3.1797199       11.371637
       3.1807799       11.433827
       3.1818399       11.674509
       3.1829100       11.847563
       3.1839700       12.051795
       3.1850200       12.236325
       3.1860900       12.405116
       3.1871600       12.563493
       3.1882100       12.731070
       3.1892700       12.919394
       3.1903300       13.106369
       3.1914001       13.273458
       3.1924601       13.441412
       3.1935301       13.672178
       3.1945901       13.844273
       3.1956601       14.027769
       3.1967199       14.261339
       3.1977899       14.457126
       3.1988499       14.668407
       3.1999199       14.851221
       3.2009799       14.842307
       3.2020600       15.280726
       3.2031300       15.464121
       3.2041900       15.648392
       3.2052600       15.844666
       3.2063200       16.083716
       3.2074001       16.359878
       3.2084701       16.571139
       3.2095301       16.788544
       3.2106099       16.996698
       3.2116799       17.243161
       3.2127399       17.492016
       3.2138200       17.753520
       3.2148900       17.774400
       3.2159600       18.245179
       3.2170300       18.487634
       3.2181101       18.737412
       3.2191801       18.992776
       3.2202499       19.262980
       3.2213199       19.541297
       3.2224000       19.798856
       3.2234700       20.034540
       3.2245400       20.355120
       3.2256200       20.650835
       3.2266901       20.920635
       3.2277701       21.197763
       3.2288499       21.456698
       3.2299299       21.782941
       3.2309999       22.039428
       3.2320700       22.369792
       3.2331500       22.672098
       3.2342300       22.830121
       3.2353101       23.275421
       3.2363901       23.572593
       3.2374699       23.897066
       3.2385499       24.213044
       3.2396300       24.523471
       3.2407100       24.851623
       3.2417901       25.156623
       3.2428701       25.243878
       3.2439499       25.872708
       3.2450299       26.230442
       3.2461100       26.562601
       3.2471900       26.914594
       3.2482700       27.222352
       3.2493501       27.586407
       3.2504399       27.952513
       3.2515299       28.206035
       3.2526100       28.687088
       3.2536900       29.046434
       3.2547700       29.415832
       3.2558601       29.734839
       3.2569499       30.162849
       3.2580400       30.506373
       3.2591200       30.880230
       3.2602000       31.203810
       3.2612901       31.614951
       3.2623799       32.020797
       3.2634699       32.365987
       3.2645500       32.760072
       3.2656400       33.166644
       3.2667301       33.559205
       3.2678199       33.950089
       3.2688999       34.309047
       3.2700000       34.745344
       3.2710900       35.070046
       3.2721701       35.462813
       3.2732699       35.944260
       3.2743599       36.378897
       3.2754500       36.717388
       3.2765400       37.206491
       3.2776301       37.612007
       3.2787299       38.006258
       3.2798200       38.332089
       3.2809200       38.732744
       3.2820101       39.213464
       3.2831099       39.583589
       3.2842000       39.993757
       3.2852800       40.509618
       3.2863901       40.893216
       3.2874899       41.281705
       3.2885799       41.649005
       3.2896800       41.998519
       3.2907701       42.279490
       3.2918701       42.314322
       3.2929599       42.554245
       3.2940600       42.743443
       3.2951601       42.401108
       3.2962601       40.857938
       3.2973599       40.136646
       3.2984500       43.290078
       3.2995601       44.737225
       3.3006599       45.623686
       3.3017499       46.422077
       3.3028600       47.118272
       3.3039601       47.622053
       3.3050599       47.923042
       3.3061600       48.565186
       3.3072600       48.979971
       3.3083601       49.391048
       3.3094699       49.798203
       3.3105800       50.200346
       3.3116801       50.494881
       3.3127799       50.641566
       3.3138800       50.937507
       3.3149900       51.207221
       3.3160901       51.347253
       3.3171999       51.205091
       3.3183100       51.396749
       3.3194101       51.464665
       3.3205099       49.532695
       3.3216200       52.162883
       3.3227301       52.615735
       3.3238399       52.937322
       3.3249500       53.307697
       3.3260500       53.632240
       3.3271599       54.563329
       3.3282700       55.190289
       3.3293800       55.597213
       3.3304901       56.762094
       3.3316000       57.501003
       3.3327100       58.168531
       3.3338201       58.809945
       3.3349299       59.339915
       3.3360500       60.062868
       3.3371601       60.675266
       3.3382699       61.114468
       3.3393800       61.528164
       3.3404901       61.636813
       3.3416100       62.388814
       3.3427300       63.130557
       3.3438399       63.441365
       3.3449500       64.045500
       3.3460701       64.348663
       3.3471799       65.286248
       3.3483000       65.847069
       3.3494201       66.303854
       3.3505299       66.937805
       3.3516400       67.590868
       3.3527601       68.293083
       3.3538799       68.411487
       3.3550000       69.597712
       3.3561201       70.140520
       3.3572400       70.819262
       3.3583601       71.586179
       3.3594699       72.312174
       3.3606000       72.930501
       3.3617201       73.490029
       3.3628299       74.079103
       3.3639600       74.717218
       3.3650801       74.977951
       3.3662000       75.372872
       3.3673201       76.335665
       3.3684399       76.996475
       3.3695700       77.459833
       3.3706901       77.261559
       3.3718200       78.844111
       3.3729401       78.688991
       3.3740699       78.969587
       3.3751900       80.823151
       3.3763199       81.276272
       3.3774400       81.988048
       3.3785701       81.968304
       3.3796899       83.803760
       3.3808200       84.546398
       3.3819399       84.422688
       3.3830700       86.221053
       3.3841901       87.309922
       3.3853300       88.103446
       3.3864601       89.246087
       3.3875799       90.160392
       3.3887100       90.517032
       3.3898399       91.812276
       3.3909700       92.286783
       3.3921001       93.325915
       3.3932300       94.667431
       3.3943601       95.033664
       3.3954999       96.262366
       3.3966300       94.790535
       3.3977599       97.537050
       3.3988900       97.013063
       3.4000299       99.294408
       3.4011600       97.631825
       3.4022901       100.71071
       3.4034200       101.42147
       3.4045601       102.22416
       3.4057000       102.98765
       3.4068301       103.46656
       3.4079599       103.88644
       3.4091001       105.11941
       3.4102399       106.32341
       3.4113801       107.67472
       3.4125099       108.68168
       3.4136500       109.18503
       3.4147899       110.15539
       3.4159300       110.30096
       3.4170699       112.62901
       3.4182100       114.40790
       3.4193499       115.45982
       3.4204900       116.57789
       3.4216299       117.68626
       3.4227700       118.53750
       3.4239099       119.33150
       3.4250500       120.74736
       3.4261899       121.80738
       3.4273300       121.84539
       3.4284699       123.24239
       3.4296200       125.02429
       3.4307599       125.07055
       3.4319000       126.88024
       3.4330399       127.93656
       3.4341900       128.82964
       3.4353399       130.10767
       3.4364800       131.35504
       3.4376199       132.41708
       3.4387701       133.37950
       3.4399199       134.11170
       3.4410701       135.72579
       3.4422100       136.67298
       3.4433601       138.10340
       3.4445100       139.19552
       3.4456601       140.43157
       3.4468100       141.43617
       3.4479499       142.86748
       3.4491000       144.06951
       3.4502499       145.10926
       3.4514000       146.30157
       3.4525499       147.47450
       3.4537001       148.61727
       3.4548600       149.68492
       3.4560101       150.90415
       3.4571500       152.23098
       3.4583099       153.01226
       3.4594600       154.55289
       3.4606199       155.53922
       3.4617701       156.64790
       3.4629300       157.42576
       3.4640801       158.66337
       3.4652400       159.67639
       3.4663899       160.76932
       3.4675500       161.61989
       3.4686999       162.32978
       3.4698601       163.45646
       3.4710100       164.64211
       3.4721701       165.46720
       3.4733300       165.73047
       3.4744799       167.14386
       3.4756401       168.39933
       3.4768000       169.20437
       3.4779601       169.86041
       3.4791200       170.90231
       3.4802799       171.84844
       3.4814401       172.67164
       3.4826000       173.50478
       3.4837601       174.31021
       3.4849200       174.82685
       3.4860799       175.42614
       3.4872401       176.63463
       3.4884100       176.91660
       3.4895699       177.58379
       3.4907300       178.97116
       3.4919000       179.03246
       3.4930601       179.71607
       3.4942300       179.99744
       3.4953899       181.37069
       3.4965501       182.57046
       3.4977200       183.32744
       3.4988899       184.16685
       3.5000401       184.77189
       3.5012200       183.97397
       3.5023899       186.12681
       3.5035501       186.96586
       3.5047200       187.19324
       3.5058999       188.42866
       3.5070601       189.16473
       3.5082200       189.79655
       3.5093999       189.13939
       3.5105700       190.65025
       3.5117400       191.05394
       3.5129099       190.80818
       3.5140901       192.18220
       3.5152500       190.85978
       3.5164101       192.14546
       3.5175900       191.80905
       3.5187600       191.98671
       3.5199299       192.36278
       3.5211101       192.03122
       3.5222900       191.66627
       3.5234699       190.03966
       3.5246401       190.84218
       3.5258100       190.09018
       3.5269799       188.74409
       3.5281601       188.48071
       3.5293400       187.37393
       3.5305200       187.46214
       3.5316899       187.89433
       3.5328600       187.97775
       3.5340500       189.05571
       3.5352299       190.13987
       3.5364001       190.93167
       3.5375800       192.48449
       3.5387599       193.25765
       3.5399401       196.11583
       3.5411201       197.20492
       3.5423000       200.59351
       3.5434799       201.53945
       3.5446601       204.12215
       3.5458400       206.15238
       3.5470200       208.40816
       3.5481999       209.60031
       3.5493901       211.20734
       3.5505800       213.39310
       3.5517600       214.93744
       3.5529499       215.92775
       3.5541301       217.70860
       3.5553100       217.12776
       3.5565000       220.28350
       3.5576799       221.64969
       3.5588601       222.73453
       3.5600500       221.53592
       3.5612400       225.11665
       3.5624299       226.20156
       3.5636201       227.46385
       3.5648000       228.54906
       3.5659800       229.52003
       3.5671699       230.52869
       3.5683601       231.73839
       3.5695500       232.50067
       3.5707400       231.04265
       3.5719299       234.34425
       3.5731201       235.14102
       3.5743101       236.91289
       3.5755000       237.43660
       3.5767000       238.15539
       3.5778999       239.12301
       3.5790901       239.16223
       3.5802801       239.40131
       3.5814700       242.11836
       3.5826700       243.35697
       3.5838699       243.61688
       3.5850599       244.53994
       3.5862501       246.33914
       3.5874500       247.19370
       3.5886500       248.08569
       3.5898399       248.64305
       3.5910299       249.75921
       3.5922301       250.03484
       3.5934300       251.16003
       3.5946300       251.94002
       3.5958300       252.54521
       3.5970299       251.57263
       3.5982299       254.16548
       3.5994301       255.13585
       3.6006200       255.57904
       3.6018200       256.02608
       3.6030200       255.73545
       3.6042299       257.24678
       3.6054299       257.69230
       3.6066301       258.50725
       3.6078300       259.04576
       3.6090300       259.79173
       3.6102300       260.80897
       3.6114399       261.50422
       3.6126499       261.50538
       3.6138501       261.90098
       3.6150401       263.24341
       3.6162500       264.00382
       3.6174600       263.91117
       3.6186700       265.08122
       3.6198699       265.81486
       3.6210799       266.04126
       3.6222899       266.23190
       3.6235001       266.93924
       3.6247001       265.93880
       3.6259100       267.31295
       3.6271200       268.65160
       3.6283300       268.78915
       3.6295300       268.76988
       3.6307399       267.75204
       3.6319599       270.02433
       3.6331699       270.72836
       3.6343801       271.41481
       3.6355901       271.61445
       3.6368101       271.65373
       3.6380200       272.35760
       3.6392300       273.04030
       3.6404400       273.25131
       3.6416500       273.57628
       3.6428699       273.94802
       3.6440899       272.08221
       3.6452999       274.13538
       3.6465099       274.81301
       3.6477301       274.41953
       3.6489401       276.08752
       3.6501601       276.33194
       3.6513700       276.67559
       3.6525900       275.86124
       3.6538200       272.79386
       3.6550300       277.78035
       3.6562500       277.82934
       3.6574600       278.90548
       3.6586800       277.36305
       3.6599100       278.86309
       3.6611300       279.79068
       3.6623499       280.35279
       3.6635599       280.94987
       3.6647899       281.96452
       3.6660099       282.38495
       3.6672399       280.91206
       3.6684501       282.92731
       3.6696701       282.53392
       3.6709001       280.38676
       3.6721201       283.60376
       3.6733501       284.36977
       3.6745701       284.64326
       3.6758001       285.33269
       3.6770201       282.94725
       3.6782501       283.67233
       3.6794701       281.99948
       3.6807001       286.78601
       3.6819201       281.92076
       3.6831501       281.29566
       3.6843901       287.13348
       3.6856101       288.03418
       3.6868401       288.57594
       3.6880600       288.67552
       3.6893001       287.90661
       3.6905301       288.49810
       3.6917601       287.46611
       3.6929901       287.84523
       3.6942201       288.88655
       3.6954501       289.47434
       3.6966801       290.77303
       3.6979201       290.18769
       3.6991501       287.68888
       3.7003801       292.30514
       3.7016201       292.09415
       3.7028501       291.53868
       3.7040801       292.75916
       3.7053199       292.36877
       3.7065499       293.21872
       3.7077899       293.11609
       3.7090199       291.67095
       3.7102599       294.50170
       3.7114999       295.13739
       3.7127299       295.25236
       3.7139699       295.87647
       3.7152100       295.86808
       3.7164500       295.75459
       3.7176800       295.63672
       3.7189200       296.04239
       3.7201700       295.82479
       3.7214100       296.41005
       3.7226501       292.69853
       3.7238901       296.91949
       3.7251301       294.56548
       3.7263601       296.55638
       3.7276001       297.03100
       3.7288499       297.32696
       3.7300899       296.99821
       3.7313399       297.07749
       3.7325900       297.19823
       3.7338300       296.55998
       3.7350800       294.08751
       3.7363200       294.52132
       3.7375600       291.07206
       3.7388000       285.95585
       3.7400601       267.26445
       3.7413099       274.93610
       3.7425499       288.44135
       3.7437899       293.16286
       3.7450399       290.65570
       3.7462900       296.18590
       3.7475400       298.04071
       3.7487900       297.50822
       3.7500401       299.05915
       3.7512901       298.71797
       3.7525401       297.51458
       3.7537899       296.31929
       3.7550399       301.51978
       3.7563000       302.05297
       3.7575500       302.56279
       3.7588000       303.31337
       3.7600501       303.37115
       3.7613001       303.10142
       3.7625599       304.21229
       3.7638099       304.62180
       3.7650599       304.84668
       3.7663200       304.60363
       3.7675800       303.99441
       3.7688301       302.49903
       3.7700901       305.67450
       3.7713499       305.94676
       3.7726099       305.97747
       3.7738700       306.06575
       3.7751300       306.39907
       3.7763901       306.42197
       3.7776501       306.30414
       3.7788999       306.54724
       3.7801499       306.79257
       3.7814100       306.62641
       3.7826800       305.72828
       3.7839501       306.93554
       3.7852099       307.46342
       3.7864699       307.48915
       3.7877300       307.77899
       3.7889900       307.68992
       3.7902501       307.34145
       3.7915101       308.19966
       3.7927699       308.12317
       3.7940400       308.01957
       3.7953000       307.34587
       3.7965701       307.75967
       3.7978401       308.51916
       3.7990999       308.42805
       3.8003700       307.50402
       3.8016400       308.10946
       3.8029001       308.54395
       3.8041699       308.79971
       3.8054399       308.23994
       3.8067000       308.75393
       3.8079700       308.52103
       3.8092401       308.57728
       3.8105099       308.50070
       3.8117800       308.72736
       3.8130600       308.31712
       3.8143301       308.31233
       3.8155899       305.98730
       3.8168700       305.61159
       3.8181400       302.64630
       3.8194101       304.11179
       3.8206899       304.61702
       3.8219600       306.75765
       3.8232300       307.98287
       3.8245001       309.07154
       3.8257799       309.39902
       3.8270600       309.74923
       3.8283300       309.96696
       3.8296101       310.21914
       3.8308899       309.83815
       3.8321700       310.26440
       3.8334401       310.90722
       3.8347199       309.35642
       3.8360000       309.13058
       3.8372800       311.52495
       3.8385501       311.57268
       3.8398299       311.62756
       3.8411100       311.92736
       3.8424001       311.46074
       3.8436799       311.96022
       3.8449600       311.95296
       3.8462400       312.27555
       3.8475201       312.02724
       3.8488100       311.78333
       3.8500900       311.22782
       3.8513701       312.17844
       3.8526599       311.62951
       3.8539400       312.60802
       3.8552201       313.13423
       3.8565099       313.25182
       3.8578000       311.70010
       3.8590801       311.83132
       3.8603699       313.41274
       3.8616500       314.03657
       3.8629401       310.71055
       3.8642299       313.61461
       3.8655100       313.25127
       3.8668101       311.12283
       3.8680899       313.24296
       3.8693800       311.71794
       3.8706801       312.61396
       3.8719599       311.66156
       3.8732500       313.76519
       3.8745401       314.41681
       3.8758399       314.75891
       3.8771300       314.71572
       3.8784201       314.68074
       3.8797100       314.53373
       3.8810000       314.35882
       3.8822999       314.24941
       3.8835900       314.53203
       3.8848901       309.92018
       3.8861799       312.40218
       3.8874800       315.00222
       3.8887701       314.85151
       3.8900700       314.94436
       3.8913600       315.08384
       3.8926599       315.08177
       3.8939700       314.99365
       3.8952601       314.94303
       3.8965600       313.44127
       3.8978500       311.91950
       3.8991599       314.72422
       3.9004600       314.32031
       3.9017601       314.00521
       3.9030600       314.02243
       3.9043601       313.32477
       3.9056599       313.00789
       3.9069600       312.22385
       3.9082699       312.17797
       3.9095700       312.99319
       3.9108701       312.97007
       3.9121799       313.94901
       3.9134800       314.69536
       3.9147799       315.03475
       3.9160900       315.05918
       3.9173901       314.37159
       3.9187000       315.50307
       3.9200001       313.95504
       3.9213099       315.60525
       3.9226201       315.28334
       3.9239199       315.83019
       3.9252300       315.74490
       3.9265399       315.21840
       3.9278600       314.92996
       3.9291601       314.90611
       3.9304600       315.07523
       3.9317801       314.46237
       3.9330900       314.25531
       3.9344001       312.97301
       3.9357100       315.57786
       3.9370301       315.97950
       3.9383399       315.28832
       3.9396501       315.45688
       3.9409599       315.35539
       3.9422801       315.35266
       3.9435899       314.48256
       3.9449000       315.32000
       3.9462099       314.98762
       3.9475400       315.25675
       3.9488599       315.67369
       3.9501700       314.18139
       3.9514799       313.17937
       3.9528000       314.65486
       3.9541199       314.22779
       3.9554400       314.27499
       3.9567599       314.53871
       3.9580801       313.88454
       3.9593899       314.75740
       3.9607100       315.93715
       3.9620299       315.92895
       3.9633601       316.32524
       3.9646800       315.83167
       3.9660001       315.94833
       3.9673200       316.73130
       3.9686401       316.77907
       3.9699600       316.73171
       3.9712801       317.02642
       3.9726100       317.05876
       3.9739299       316.38789
       3.9752600       317.22904
       3.9765899       317.09413
       3.9779201       316.94529
       3.9792399       317.30928
       3.9805601       315.65596
       3.9818900       317.43013
       3.9832201       317.56890
       3.9845500       316.83298
       3.9858799       312.59988
       3.9872100       316.81772
       3.9885399       317.34083
       3.9898701       317.68774
       3.9912000       317.05563
       3.9925301       315.24136
       3.9938600       317.44097
       3.9951899       313.36651
       3.9965200       317.42058
       3.9978499       317.20041
       3.9991801       315.36153
       4.0005002       317.04565
       4.0018501       316.46929
       4.0031800       317.05335
       4.0045199       317.55530
       4.0058498       317.63125
       4.0071802       317.48168
       4.0085201       316.71085
       4.0098600       316.24624
       4.0112000       316.27339
       4.0125299       316.56220
       4.0138602       316.76201
       4.0152001       313.38632
       4.0165401       314.72420
       4.0178800       311.81668
       4.0192199       313.94383
       4.0205598       312.38153
       4.0219002       313.26238
       4.0232401       314.62786
       4.0245800       315.80033
       4.0259199       316.06764
       4.0272598       316.53636
       4.0286102       317.19150
       4.0299602       317.34409
       4.0313001       317.51931
       4.0326400       315.60020
       4.0339799       317.37981
       4.0353298       317.92096
       4.0366802       317.92809
       4.0380201       317.91109
       4.0393600       317.74579
       4.0407100       317.55519
       4.0420599       317.49984
       4.0434098       316.72282
       4.0447602       312.27135
       4.0461001       315.45547
       4.0474501       315.08242
       4.0488000       312.88082
       4.0501499       307.90390
       4.0514998       289.13557
       4.0528498       283.85203
       4.0542002       305.11139
       4.0555501       312.48154
       4.0569100       314.46430
       4.0582600       315.84386
       4.0596099       316.39323
       4.0609698       316.49185
       4.0623202       316.68357
       4.0636702       316.87522
       4.0650301       311.18927
       4.0663800       314.55219
       4.0677299       317.05275
       4.0690899       316.38907
       4.0704498       310.09754
       4.0718098       308.07527
       4.0731702       307.98124
       4.0745201       313.23622
       4.0758700       312.24849
       4.0772300       314.81893
       4.0785899       316.79268
       4.0799499       317.08321
       4.0813098       317.00828
       4.0826702       317.50089
       4.0840302       318.49077
       4.0853901       318.49350
       4.0867600       317.36311
       4.0881300       313.35289
       4.0894899       318.66800
       4.0908499       318.79250
       4.0922098       319.08124
       4.0935702       318.08843
       4.0949402       318.91228
       4.0963101       318.67792
       4.0976701       317.92568
       4.0990400       317.55588
       4.1004100       318.08433
       4.1017699       319.54278
       4.1031399       319.54679
       4.1045098       319.26240
       4.1058698       318.67210
       4.1072402       318.60484
       4.1086102       318.87395
       4.1099801       318.72528
       4.1113501       314.07754
       4.1127200       318.93322
       4.1140900       318.00803
       4.1154599       319.25412
       4.1168399       318.92406
       4.1182098       319.39244
       4.1195798       319.71239
       4.1209602       319.16198
       4.1223302       320.00873
       4.1237001       320.03013
       4.1250801       320.26061
       4.1264501       320.37822
       4.1278200       320.04738
       4.1292000       320.53542
       4.1305799       319.08552
       4.1319599       318.53861
       4.1333399       315.97299
       4.1347098       318.69191
       4.1360798       318.64795
       4.1374602       317.19515
       4.1388402       318.68418
       4.1402202       317.50922
       4.1416001       318.25428
       4.1429801       316.79845
       4.1443601       316.44247
       4.1457500       318.20763
       4.1471400       317.90843
       4.1485200       316.29425
       4.1499000       316.15430
       4.1512799       315.08712
       4.1526599       316.90245
       4.1540399       317.25653
       4.1554298       316.64071
       4.1568198       315.94651
       4.1581998       314.76399
       4.1595898       314.23584
       4.1609802       314.07138
       4.1623602       313.82889
       4.1637502       312.80939
       4.1651402       312.47058
       4.1665301       311.08291
       4.1679201       309.68603
       4.1693001       307.43234
       4.1706901       305.54601
       4.1720800       306.41602
       4.1734700       308.78043
       4.1748700       310.53160
       4.1762600       310.34662
       4.1776500       311.41121
       4.1790400       311.13577
       4.1804299       311.28508
       4.1818299       310.67672
       4.1832299       311.75240
       4.1846199       308.67952
       4.1860099       311.41080
       4.1874099       312.15073
       4.1888099       311.82795
       4.1901999       310.30316
       4.1915898       307.72493
       4.1929898       310.07103
       4.1943898       308.58586
       4.1957898       307.86990
       4.1971898       306.29856
       4.1985898       306.47412
       4.1999898       306.28547
       4.2013898       299.32980
       4.2027898       303.51000
       4.2041898       303.33985
       4.2055898       298.93068
       4.2069898       302.33146
       4.2083902       298.84235
       4.2097902       299.95056
       4.2112002       299.26746
       4.2126098       297.84127
       4.2140098       296.79080
       4.2154102       295.41215
       4.2168198       292.98565
       4.2182298       290.77769
       4.2196298       288.14563
       4.2210302       285.25562
       4.2224398       281.57467
       4.2238498       276.97601
       4.2252598       271.24664
       4.2266698       264.08516
       4.2280798       254.57950
       4.2294898       242.34205
       4.2308898       228.28697
       4.2322998       211.68147
       4.2337198       192.76997
       4.2351298       171.49244
       4.2365398       150.26908
       4.2379498       129.03852
       4.2393599       108.78152
       4.2407799       90.194399
       4.2421899       73.743555
       4.2435999       58.957156
       4.2450199       46.279351
       4.2464399       35.270844
       4.2478499       26.230109
       4.2492599       18.960769
       4.2506800       13.431770
       4.2521000       9.3256405
       4.2535200       6.4161612
       4.2549400       4.3338472
       4.2563601       2.8711420
       4.2577801       1.8565173
       4.2591901       1.1791332
       4.2606001      0.73133771
       4.2620301      0.44137346
       4.2634602      0.26423979
       4.2648802      0.15939442
       4.2663002     0.099438809
       4.2677202     0.067768587
       4.2691398     0.055799572
       4.2705598     0.059730895
       4.2719798     0.090449824
       4.2734098      0.19387246
       4.2748399      0.48801132
       4.2762599       1.2692359
       4.2776799       3.1993514
       4.2791100       7.2872907
       4.2805400       14.843449
       4.2819600       27.605475
       4.2833900       48.046951
       4.2848201       78.155347
       4.2862501       116.21601
       4.2876801       158.19859
       4.2891002       198.24472
       4.2905302       229.33636
       4.2919598       251.76092
       4.2933898       267.73813
       4.2948298       277.47190
       4.2962599       286.16249
       4.2976899       294.51760
       4.2991199       301.66477
       4.3005500       306.08337
       4.3019900       309.36561
       4.3034201       312.06632
       4.3048501       314.63149
       4.3062901       317.23382
       4.3077302       319.64464
       4.3091698       321.13038
       4.3105998       321.99070
       4.3120298       321.89897
       4.3134699       323.00143
       4.3149099       323.35534
       4.3163500       322.65494
       4.3177900       322.54419
       4.3192301       322.50254
       4.3206701       322.45476
       4.3221102       321.89586
       4.3235502       321.59076
       4.3249898       323.06093
       4.3264298       321.48085
       4.3278699       322.52790
       4.3293099       322.49638
       4.3307600       322.60976
       4.3322101       320.06756
       4.3336501       323.06022
       4.3350902       323.18725
       4.3365302       322.71215
       4.3379798       322.57544
       4.3394299       320.90087
       4.3408699       321.60761
       4.3423200       321.00619
       4.3437700       322.27481
       4.3452201       319.87101
       4.3466702       322.33833
       4.3481102       319.23592
       4.3495598       322.05079
       4.3510098       318.97218
       4.3524599       321.16481
       4.3539200       320.08022
       4.3553700       320.75476
       4.3568201       319.09341
       4.3582702       320.38399
       4.3597202       319.68361
       4.3611798       319.09633
       4.3626299       318.55988
       4.3640800       314.00798
       4.3655400       318.07647
       4.3670001       316.60719
       4.3684502       316.23950
       4.3699002       314.01157
       4.3713598       310.90909
       4.3728199       308.32645
       4.3742800       303.35284
       4.3757401       297.32397
       4.3772001       295.41384
       4.3786602       293.61666
       4.3801198       292.35435
       4.3815799       286.44327
       4.3830400       280.08076
       4.3845000       273.29031
       4.3859601       266.01289
       4.3874202       265.56754
       4.3888798       267.42599
       4.3903399       272.80025
       4.3917999       281.47543
       4.3932700       286.97245
       4.3947401       292.51607
       4.3962002       298.40453
       4.3976598       304.14669
       4.3991299       304.76096
       4.4006000       311.51873
       4.4020600       311.71650
       4.4035301       309.14857
       4.4050002       313.33366
       4.4064698       312.67927
       4.4079399       311.59895
       4.4094100       313.61978
       4.4108801       308.96951
       4.4123502       312.55226
       4.4138198       314.23522
       4.4152899       312.80385
       4.4167600       313.66483
       4.4182301       312.96716
       4.4197102       313.64483
       4.4211798       308.36039
       4.4226499       312.79063
       4.4241300       313.54042
       4.4256001       311.03445
       4.4270701       313.74488
       4.4285498       311.95037
       4.4300299       310.89419
       4.4315100       312.14107
       4.4329901       310.31175
       4.4344602       309.72552
       4.4359298       311.61707
       4.4374099       311.32847
       4.4388900       311.74345
       4.4403701       309.66152
       4.4418502       312.04589
       4.4433298       311.71038
       4.4448099       309.74866
       4.4462900       311.94650
       4.4477801       312.30184
       4.4492698       308.04138
       4.4507499       311.24344
       4.4522300       312.23885
       4.4537101       311.81597
       4.4552002       310.81798
       4.4566898       312.29899
       4.4581699       308.89749
       4.4596500       311.47259
       4.4611402       309.54913
       4.4626298       310.13743
       4.4641099       310.86786
       4.4656000       310.68612
       4.4670901       308.42477
       4.4685798       311.82140
       4.4700699       311.17779
       4.4715600       308.93223
       4.4730501       311.48883
       4.4745402       311.28724
       4.4760399       310.80790
       4.4775300       310.24234
       4.4790201       312.16286
       4.4805102       311.21292
       4.4819999       312.07195
       4.4835000       311.72519
       4.4850001       310.93926
       4.4864898       312.51929
       4.4879799       312.78540
       4.4894800       308.64147
       4.4909801       311.48027
       4.4924798       312.75906
       4.4939699       313.74939
       4.4954600       311.03859
       4.4969602       312.24935
       4.4984598       313.22646
       4.4999399       310.30284
       4.5014601       307.75480
       4.5029702       309.77095
       4.5044699       308.88806
       4.5059600       308.38352
       4.5074701       309.14859
       4.5089798       308.65091
       4.5104799       308.85827
       4.5119801       309.50292
       4.5134802       307.71145
       4.5149899       309.45916
       4.5164900       308.11546
       4.5180001       308.51504
       4.5195098       308.45535
       4.5210099       309.37962
       4.5225201       307.58266
       4.5240302       308.65263
       4.5255399       307.38680
       4.5270400       307.02880
       4.5285501       308.83256
       4.5300598       309.23179
       4.5315700       307.59742
       4.5330701       306.47122
       4.5345898       308.36348
       4.5361099       308.20165
       4.5376201       309.50363
       4.5391302       306.42658
       4.5406399       309.39615
       4.5421500       307.57626
       4.5436702       309.29266
       4.5451798       307.00600
       4.5467000       306.81937
       4.5482202       308.90264
       4.5497298       308.23481
       4.5512400       306.91048
       4.5527601       307.11859
       4.5542798       308.16360
       4.5558000       308.90860
       4.5573201       306.48182
       4.5588398       306.94441
       4.5603600       309.11144
       4.5618701       306.88487
       4.5633898       305.51779
       4.5649199       308.63351
       4.5664401       305.87117
       4.5679598       307.44298
       4.5694900       305.07756
       4.5710101       307.45674
       4.5725298       306.80856
       4.5740600       308.84724
       4.5755901       307.92596
       4.5771098       309.79881
       4.5786300       308.86220
       4.5801601       307.95053
       4.5816898       308.83334
       4.5832200       309.82248
       4.5847502       307.98708
       4.5862799       309.13247
       4.5878100       309.24722
       4.5893402       307.20221
       4.5908699       308.89476
       4.5924001       306.94512
       4.5939298       308.32920
       4.5954599       307.02506
       4.5969901       308.64731
       4.5985198       309.62452
       4.6000500       309.62941
       4.6015801       313.29546
       4.6031098       315.23323
       4.6046500       315.64744
       4.6061902       317.15096
       4.6077199       316.33503
       4.6092501       314.51611
       4.6107898       317.08095
       4.6123300       316.76173
       4.6138601       316.61032
       4.6153998       316.36744
       4.6169400       316.76428
       4.6184702       318.14809
       4.6200099       316.59991
       4.6215601       317.75622
       4.6230998       317.72729
       4.6246400       316.96255
       4.6261802       315.45544
       4.6277199       318.12661
       4.6292601       318.67706
       4.6308198       317.99992
       4.6323600       320.72622
       4.6339002       319.52726
       4.6354399       321.82340
       4.6369801       320.34489
       4.6385298       321.68704
       4.6400800       321.13470
       4.6416302       322.32443
       4.6431699       320.70813
       4.6447201       321.58621
       4.6462698       320.50005
       4.6478200       318.90228
       4.6493702       317.72656
       4.6509099       310.54797
       4.6524601       301.65423
       4.6540098       286.75320
       4.6555600       308.34800
       4.6571202       311.35313
       4.6586699       310.68550
       4.6602201       312.66045
       4.6617799       308.06466
       4.6633301       271.57391
       4.6648798       154.93738
       4.6664400       38.731692
       4.6680102       13.132074
       4.6695600       5.7831711
       4.6711102       3.1328078
       4.6726699       2.1365756
       4.6742201       2.0728316
       4.6757798       4.7107009
       4.6773400       26.722325
       4.6788998       115.58763
       4.6804600       182.99834
       4.6820202       225.37537
       4.6835799       254.12544
       4.6851401       276.48917
       4.6867099       292.16856
       4.6882701       298.00515
       4.6898298       301.55281
       4.6914001       303.80624
       4.6929598       307.50039
       4.6945200       308.03322
       4.6960902       308.41715
       4.6976500       310.55418
       4.6992102       310.36394
       4.7007799       312.86354
       4.7023501       313.07931
       4.7039199       312.61199
       4.7054801       313.60706
       4.7070599       314.07443
       4.7086301       313.06148
       4.7101998       313.73851
       4.7117600       313.55115
       4.7133298       313.35806
       4.7149100       314.55412
       4.7164798       314.61573
       4.7180500       313.23893
       4.7196102       314.82134
       4.7211900       315.51459
       4.7227602       315.81057
       4.7243400       315.43315
       4.7259102       313.34527
       4.7274899       315.23168
       4.7290602       313.91608
       4.7306399       315.24117
       4.7322202       314.21365
       4.7338099       313.57787
       4.7353802       315.74277
       4.7369599       316.26165
       4.7385302       315.92125
       4.7401099       315.76814
       4.7416902       316.16902
       4.7432799       316.98667
       4.7448602       313.62427
       4.7464299       316.69537
       4.7480202       316.45597
       4.7495999       316.29331
       4.7511802       316.17171
       4.7527599       315.96085
       4.7543502       316.35117
       4.7559400       316.29050
       4.7575202       316.58572
       4.7591100       316.63148
       4.7607002       317.40249
       4.7622800       317.87430
       4.7638698       317.65145
       4.7654500       317.81574
       4.7670498       318.01587
       4.7686400       318.25327
       4.7702298       317.53836
       4.7718201       316.44762
       4.7734098       314.73500
       4.7749901       313.28970
       4.7765899       304.44904
       4.7781801       288.05899
       4.7797699       285.52587
       4.7813601       299.97310
       4.7829599       310.49245
       4.7845602       313.65247
       4.7861500       311.55442
       4.7877498       311.04953
       4.7893500       313.93682
       4.7909498       316.94971
       4.7925401       317.51600
       4.7941399       317.36654
       4.7957401       318.08250
       4.7973399       318.74614
       4.7989302       318.34925
       4.8005300       318.46441
       4.8021302       318.11961
       4.8037300       318.52318
       4.8053298       318.45255
       4.8069201       318.73406
       4.8085299       319.57946
       4.8101401       319.97847
       4.8117399       319.80261
       4.8133502       319.22096
       4.8149500       319.72039
       4.8165498       320.08769
       4.8181601       319.95999
       4.8197699       319.36535
       4.8213701       320.46166
       4.8229799       318.97074
       4.8245802       318.95323
       4.8261900       320.10052
       4.8277998       319.37134
       4.8294101       319.85706
       4.8310199       319.36894
       4.8326302       319.60813
       4.8342500       317.06704
       4.8358598       319.81504
       4.8374701       319.35924
       4.8390899       319.42073
       4.8406901       320.09441
       4.8422999       321.23098
       4.8439202       319.31868
       4.8455300       321.44697
       4.8471398       320.97438
       4.8487601       320.38554
       4.8503799       320.94307
       4.8520002       320.87244
       4.8536201       320.00562
       4.8552399       319.63324
       4.8568602       319.88067
       4.8584800       319.60886
       4.8600998       320.31862
       4.8617201       320.98217
       4.8633399       319.47573
       4.8649602       318.56447
       4.8665800       320.07803
       4.8681998       320.16298
       4.8698201       319.79060
       4.8714399       319.93422
       4.8730602       319.37578
       4.8746800       320.11469
       4.8763099       319.91900
       4.8779402       321.42855
       4.8795600       320.93302
       4.8811998       320.54079
       4.8828301       319.89655
       4.8844500       319.41270
       4.8860798       318.86570
       4.8877101       318.86968
       4.8893299       319.57761
       4.8909602       319.65114
       4.8925900       320.66746
       4.8942199       319.91112
       4.8958502       320.01277
       4.8974800       320.08312
       4.8991199       321.03750
       4.9007502       321.09624
       4.9023900       321.72998
       4.9040198       321.66223
       4.9056501       320.70755
       4.9072900       322.33428
       4.9089298       321.70590
       4.9105601       322.98931
       4.9122000       322.74396
       4.9138398       322.66356
       4.9154701       321.07250
       4.9171000       322.82549
       4.9187498       321.59391
       4.9203901       321.45416
       4.9220300       322.86268
       4.9236798       322.62023
       4.9253201       321.67341
       4.9269600       321.03612
       4.9285998       322.11496
       4.9302402       322.15814
       4.9318900       321.45312
       4.9335299       322.39104
       4.9351702       322.16479
       4.9368100       320.52437
       4.9384599       320.44507
       4.9401102       322.28376
       4.9417601       321.05926
       4.9434099       320.63254
       4.9450498       322.50378
       4.9466901       322.68915
       4.9483500       321.09688
       4.9499998       323.79116
       4.9516401       322.89486
       4.9533000       323.53620
       4.9549499       321.54623
       4.9566002       322.04120
       4.9582601       322.97980
       4.9599099       322.16364
       4.9615698       322.22918
       4.9632201       321.74636
       4.9648700       323.28913
       4.9665298       322.27987
       4.9681802       322.06377
       4.9698300       322.44124
       4.9714999       322.18896
       4.9731498       322.52758
       4.9748101       322.83311
       4.9764700       323.19214
       4.9781299       321.49862
       4.9797802       321.98235
       4.9814401       322.88206
       4.9831100       321.36796
       4.9847698       322.93250
       4.9864302       322.75035
       4.9880800       322.96016
       4.9897499       321.32697
       4.9914098       321.48673
       4.9930801       322.28176
       4.9947400       321.74758
       4.9964099       323.13746
       4.9980698       323.74403
       4.9997201       322.31408
       5.0014000       319.68902
       5.0030799       319.10249
       5.0047402       319.64953
       5.0064001       318.36281
       5.0080700       319.72889
       5.0097499       319.11773
       5.0114298       320.39594
       5.0130901       319.37128
       5.0147500       318.06688
       5.0164299       320.09986
       5.0180998       318.96529
       5.0197701       320.07153
       5.0214500       318.29547
       5.0231199       319.38403
       5.0247998       318.99540
       5.0264702       319.78377
       5.0281501       318.24939
       5.0298200       318.20889
       5.0314999       319.09968
       5.0331702       318.75563
       5.0348501       318.72457
       5.0365200       319.44418
       5.0382099       319.10329
       5.0398998       318.31918
       5.0415702       319.21135
       5.0432501       316.88327
       5.0449200       318.98031
       5.0466099       317.65316
       5.0482998       318.67646
       5.0499701       318.81594
       5.0516601       318.62222
       5.0533500       316.94424
       5.0550299       316.88941
       5.0567098       317.63488
       5.0584002       317.57764
       5.0600901       318.05297
       5.0617700       317.67269
       5.0634599       318.22372
       5.0651498       317.65127
       5.0668402       315.20951
       5.0685201       317.89428
       5.0702100       317.16287
       5.0719099       317.50334
       5.0735998       317.68862
       5.0752902       316.99270
       5.0769901       316.76377
       5.0786700       316.23279
       5.0803599       316.21843
       5.0820599       317.15156
       5.0837498       315.97364
       5.0854402       317.03736
       5.0871401       316.54701
       5.0888400       315.82682
       5.0905399       316.26738
       5.0922399       314.27200
       5.0939398       316.47625
       5.0956202       315.49184
       5.0973101       314.20060
       5.0990100       315.82014
       5.1007099       315.50107
       5.1024098       313.85629
       5.1041098       315.74715
       5.1058202       314.24267
       5.1075401       314.92184
       5.1092401       314.61687
       5.1109400       315.63641
       5.1126399       313.91422
       5.1143398       315.26984
       5.1160402       315.05250
       5.1177502       312.78585
       5.1194601       312.76990
       5.1211600       312.94574
       5.1228600       312.79544
       5.1245799       310.59839
       5.1262898       307.73173
       5.1279898       297.35623
       5.1297002       301.38652
       5.1314101       307.77611
       5.1331201       309.36507
       5.1348400       312.28959
       5.1365499       312.36739
       5.1382599       313.37115
       5.1399798       313.62373
       5.1416898       313.25403
       5.1434002       312.88103
       5.1451101       311.47978
       5.1468201       312.94104
       5.1485500       313.74626
       5.1502600       312.98147
       5.1519699       313.34587
       5.1536999       313.42678
       5.1554098       312.69833
       5.1571202       313.48810
       5.1588502       311.48426
       5.1605701       312.23267
       5.1623001       312.34575
       5.1640100       312.87706
       5.1657200       312.28079
       5.1674500       311.99104
       5.1691699       312.59415
       5.1708999       312.28244
       5.1726298       311.08387
       5.1743498       311.13950
       5.1760702       312.16464
       5.1778002       311.97395
       5.1795201       311.22872
       5.1812501       312.05789
       5.1829700       312.08512
       5.1847000       310.63273
       5.1864200       311.51210
       5.1881599       310.50810
       5.1898999       311.64338
       5.1916299       311.37637
       5.1933498       311.57496
       5.1950798       311.61200
       5.1968098       311.60794
       5.1985502       310.21414
       5.2002702       309.75872
       5.2020102       309.85461
       5.2037501       310.28365
       5.2054701       310.46550
       5.2072101       310.92156
       5.2089500       310.22167
       5.2106900       310.71632
       5.2124200       308.32223
       5.2141600       309.68953
       5.2158999       310.48443
       5.2176399       309.04345
       5.2193799       310.24826
       5.2211099       310.35113
       5.2228599       310.13379
       5.2245998       309.68521
       5.2263398       308.65027
       5.2280898       309.27023
       5.2298298       308.94204
       5.2315602       309.14522
       5.2333102       309.54078
       5.2350602       309.58804
       5.2368102       307.63183
       5.2385502       308.95331
       5.2402902       307.52383
       5.2420402       307.75572
       5.2437901       308.84409
       5.2455401       308.54792
       5.2472901       308.15783
       5.2490401       308.22715
       5.2507901       308.59539
       5.2525401       307.79796
       5.2542901       307.42051
       5.2560401       306.75928
       5.2577901       307.19208
       5.2595401       307.65820
       5.2612901       307.10876
       5.2630501       306.54172
       5.2648101       307.17265
       5.2665601       306.63135
       5.2683101       305.82658
       5.2700601       307.01656
       5.2718201       306.23737
       5.2735901       306.45837
       5.2753401       307.09026
       5.2771001       306.57308
       5.2788601       307.10269
       5.2806101       306.02669
       5.2823701       305.40217
       5.2841401       306.55327
       5.2859001       305.35532
       5.2876601       306.46358
       5.2894201       306.53202
       5.2911901       306.30438
       5.2929502       305.37352
       5.2947102       305.54300
       5.2964702       305.11871
       5.2982502       306.14502
       5.3000102       305.38369
       5.3017702       305.31577
       5.3035498       305.35818
       5.3053098       305.72837
       5.3070798       305.39217
       5.3088498       304.08266
       5.3106298       304.82138
       5.3123999       304.87651
       5.3141599       305.35622
       5.3159299       304.43489
       5.3176999       304.35079
       5.3194699       304.82490
       5.3212500       304.63964
       5.3230200       303.44736
       5.3248000       304.52151
       5.3265700       303.00971
       5.3283501       304.35673
       5.3301201       303.47777
       5.3319001       302.61821
       5.3336701       304.33542
       5.3354502       303.43937
       5.3372402       302.89957
       5.3390298       302.28598
       5.3407998       302.05758
       5.3425798       303.33706
       5.3443499       301.93774
       5.3461399       301.53003
       5.3479199       302.07480
       5.3497000       302.11411
       5.3514900       300.34069
       5.3532701       302.09147
       5.3550501       300.36136
       5.3568401       300.37784
       5.3586202       301.40918
       5.3604102       301.03463
       5.3621998       301.59369
       5.3639898       301.61373
       5.3657799       301.48484
       5.3675599       300.32985
       5.3693500       301.34448
       5.3711400       299.11821
       5.3729401       296.04443
       5.3747201       298.95495
       5.3765101       298.58019
       5.3783102       298.37540
       5.3800998       297.11848
       5.3818898       298.11050
       5.3836899       298.84436
       5.3854899       299.23286
       5.3872700       298.61135
       5.3890600       298.67439
       5.3908601       298.93476
       5.3926601       298.79575
       5.3944602       297.69455
       5.3962598       298.45606
       5.3980598       298.61747
       5.3998599       298.84086
       5.4016600       298.16727
       5.4034600       298.60811
       5.4052601       298.05350
       5.4070601       298.42157
       5.4088602       297.75804
       5.4106598       297.85339
       5.4124599       297.56733
       5.4142699       297.81276
       5.4160900       298.00429
       5.4178901       297.28650
       5.4196901       297.82128
       5.4215002       297.21916
       5.4233098       296.32219
       5.4251099       297.29668
       5.4269199       296.21846
       5.4287400       296.47778
       5.4305401       297.05409
       5.4323502       297.06792
       5.4341602       296.36588
       5.4359798       296.42325
       5.4377899       296.06855
       5.4396000       294.81689
       5.4414101       296.59552
       5.4432201       295.10276
       5.4450402       295.05022
       5.4468498       294.81429
       5.4486699       294.65466
       5.4504900       293.97896
       5.4523001       293.90122
       5.4541202       293.53972
       5.4559398       293.80602
       5.4577498       293.98544
       5.4595699       290.28572
       5.4614000       291.87348
       5.4632201       293.64725
       5.4650402       293.05656
       5.4668498       292.83207
       5.4686799       292.77223
       5.4705000       293.26709
       5.4723201       292.72931
       5.4741502       292.80638
       5.4759798       292.73070
       5.4777999       292.56392
       5.4796200       292.82552
       5.4814501       291.29799
       5.4832702       292.04605
       5.4850998       292.09288
       5.4869399       292.36886
       5.4887700       292.28172
       5.4906001       291.53295
       5.4924202       292.04341
       5.4942498       291.14054
       5.4960899       291.82126
       5.4979200       291.07034
       5.4994102       290.35820
