wavelength       flux
  microns         mJy
      
     0.800134  3.99214e-09
     0.800401  4.13750e-09
     0.800668  4.12345e-09
     0.800935  4.17840e-09
     0.801202  4.21756e-09
     0.801469  4.23495e-09
     0.801736  4.26329e-09
     0.802003  4.29523e-09
     0.802270  4.28599e-09
     0.802538  4.32104e-09
     0.802805  4.22960e-09
     0.803073  4.32224e-09
     0.803340  4.39328e-09
     0.803608  4.41869e-09
     0.803876  4.44699e-09
     0.804145  4.45293e-09
     0.804412  4.48805e-09
     0.804680  4.51557e-09
     0.804949  4.29665e-09
     0.805217  4.56927e-09
     0.805485  4.60241e-09
     0.805754  4.59329e-09
     0.806022  4.64826e-09
     0.806291  4.67523e-09
     0.806560  4.68618e-09
     0.806829  4.67432e-09
     0.807098  4.60196e-09
     0.807367  4.71515e-09
     0.807636  4.64894e-09
     0.807905  4.80879e-09
     0.808174  4.83794e-09
     0.808444  4.86683e-09
     0.808713  4.80607e-09
     0.808983  4.93574e-09
     0.809253  4.94495e-09
     0.809523  4.92438e-09
     0.809792  5.00597e-09
     0.810062  5.02434e-09
     0.810332  5.03125e-09
     0.810602  5.08989e-09
     0.810872  5.11415e-09
     0.811143  5.14292e-09
     0.811413  5.12166e-09
     0.811683  5.20043e-09
     0.811954  5.10716e-09
     0.812225  5.23588e-09
     0.812495  5.28263e-09
     0.812766  5.23381e-09
     0.813037  5.34731e-09
     0.813308  5.35652e-09
     0.813579  5.37593e-09
     0.813850  5.43424e-09
     0.814122  5.45193e-09
     0.814393  5.46265e-09
     0.814664  5.50361e-09
     0.814936  5.55061e-09
     0.815208  5.57308e-09
     0.815479  5.61502e-09
     0.815751  5.63418e-09
     0.816023  5.64883e-09
     0.816296  5.58166e-09
     0.816567  5.69916e-09
     0.816839  5.75036e-09
     0.817112  5.76347e-09
     0.817384  5.80076e-09
     0.817657  5.81803e-09
     0.817930  5.83507e-09
     0.818202  5.79485e-09
     0.818475  4.65225e-09
     0.818747  5.62675e-09
     0.819020  5.84721e-09
     0.819293  5.90332e-09
     0.819567  5.03876e-09
     0.819840  4.89523e-09
     0.820113  5.87666e-09
     0.820386  6.04995e-09
     0.820660  5.94210e-09
     0.820933  6.06210e-09
     0.821207  6.15332e-09
     0.821480  6.13134e-09
     0.821754  6.23613e-09
     0.822028  6.24833e-09
     0.822302  6.05881e-09
     0.822576  6.34208e-09
     0.822850  6.37844e-09
     0.823125  6.41824e-09
     0.823399  6.39729e-09
     0.823674  6.48637e-09
     0.823949  6.53027e-09
     0.824223  6.43718e-09
     0.824498  6.52239e-09
     0.824773  6.62620e-09
     0.825048  6.63661e-09
     0.825323  6.67587e-09
     0.825598  6.68215e-09
     0.825873  6.63331e-09
     0.826148  6.79564e-09
     0.826423  6.82325e-09
     0.826699  6.85014e-09
     0.826974  6.84814e-09
     0.827250  6.85783e-09
     0.827527  6.93461e-09
     0.827802  6.96900e-09
     0.828077  6.98361e-09
     0.828353  7.00933e-09
     0.828630  7.04756e-09
     0.828906  7.11179e-09
     0.829183  7.05568e-09
     0.829459  7.09612e-09
     0.829735  7.21035e-09
     0.830012  7.22293e-09
     0.830289  7.26813e-09
     0.830565  7.27959e-09
     0.830842  7.18863e-09
     0.831119  7.33570e-09
     0.831396  7.36881e-09
     0.831674  7.47627e-09
     0.831951  7.50727e-09
     0.832228  7.55935e-09
     0.832505  7.54609e-09
     0.832783  7.26366e-09
     0.833061  6.94978e-09
     0.833338  7.64908e-09
     0.833616  7.54468e-09
     0.833893  7.75241e-09
     0.834171  7.78882e-09
     0.834449  7.81392e-09
     0.834728  7.85590e-09
     0.835006  7.71937e-09
     0.835284  7.97472e-09
     0.835563  7.77096e-09
     0.835841  8.03926e-09
     0.836120  8.10131e-09
     0.836399  8.04415e-09
     0.836678  7.51256e-09
     0.836957  8.23923e-09
     0.837235  8.22463e-09
     0.837515  8.26696e-09
     0.837794  8.31353e-09
     0.838073  7.84302e-09
     0.838353  7.93989e-09
     0.838632  7.94103e-09
     0.838911  7.32273e-09
     0.839191  8.18422e-09
     0.839471  8.59527e-09
     0.839750  8.59276e-09
     0.840030  8.22078e-09
     0.840310  8.66064e-09
     0.840590  8.78086e-09
     0.840870  8.82910e-09
     0.841151  8.86430e-09
     0.841431  8.24259e-09
     0.841712  8.97360e-09
     0.841992  8.75400e-09
     0.842273  8.99378e-09
     0.842554  8.82121e-09
     0.842835  8.24663e-09
     0.843116  9.08650e-09
     0.843397  9.19894e-09
     0.843678  7.23373e-09
     0.843959  8.93948e-09
     0.844240  9.07528e-09
     0.844522  9.09391e-09
     0.844803  9.22770e-09
     0.845085  9.32995e-09
     0.845366  9.04389e-09
     0.845648  9.18222e-09
     0.845930  9.23350e-09
     0.846213  9.37928e-09
     0.846494  9.46951e-09
     0.846776  9.44802e-09
     0.847058  8.51887e-09
     0.847341  9.50575e-09
     0.847623  9.61631e-09
     0.847906  9.73603e-09
     0.848189  9.78122e-09
     0.848471  9.77239e-09
     0.848754  9.90741e-09
     0.849037  9.95993e-09
     0.849320  1.00083e-08
     0.849603  9.97052e-09
     0.849886  9.17270e-09
     0.850170  8.95950e-09
     0.850453  1.01788e-08
     0.850736  1.02605e-08
     0.851020  1.01846e-08
     0.851304  1.03620e-08
     0.851587  9.75539e-09
     0.851871  1.01730e-08
     0.852156  9.93621e-09
     0.852439  1.05803e-08
     0.852723  1.06385e-08
     0.853008  1.06700e-08
     0.853292  1.06586e-08
     0.853577  1.07088e-08
     0.853861  1.06785e-08
     0.854146  1.00897e-08
     0.854431  7.25324e-09
     0.854715  1.01365e-08
     0.855000  1.06271e-08
     0.855285  1.11450e-08
     0.855570  1.12704e-08
     0.855856  1.13534e-08
     0.856141  1.13892e-08
     0.856426  1.15248e-08
     0.856712  1.15362e-08
     0.856997  1.16635e-08
     0.857283  1.16298e-08
     0.857569  1.17546e-08
     0.857854  1.18350e-08
     0.858140  1.18867e-08
     0.858426  1.17382e-08
     0.858712  1.20495e-08
     0.858999  1.21451e-08
     0.859285  1.21903e-08
     0.859572  1.22400e-08
     0.859858  1.23321e-08
     0.860145  1.24150e-08
     0.860432  1.24427e-08
     0.860718  1.25420e-08
     0.861005  1.26148e-08
     0.861292  1.22492e-08
     0.861579  1.27010e-08
     0.861867  1.28090e-08
     0.862154  1.29158e-08
     0.862441  1.27420e-08
     0.862729  1.30882e-08
     0.863016  1.32072e-08
     0.863304  1.31988e-08
     0.863591  1.32768e-08
     0.863880  1.33507e-08
     0.864167  1.34408e-08
     0.864455  1.35137e-08
     0.864743  1.36005e-08
     0.865032  1.36390e-08
     0.865321  1.36520e-08
     0.865609  1.37396e-08
     0.865897  1.36702e-08
     0.866186  1.30205e-08
     0.866475  9.61034e-09
     0.866764  1.34226e-08
     0.867053  1.40202e-08
     0.867342  1.42008e-08
     0.867631  1.32847e-08
     0.867920  1.40189e-08
     0.868209  1.44975e-08
     0.868499  1.39887e-08
     0.868788  1.44784e-08
     0.869078  1.21816e-08
     0.869367  1.41221e-08
     0.869657  1.45716e-08
     0.869947  1.48846e-08
     0.870237  1.48500e-08
     0.870528  1.50310e-08
     0.870817  1.51157e-08
     0.871107  1.52757e-08
     0.871398  1.51007e-08
     0.871688  1.52082e-08
     0.871979  1.52830e-08
     0.872269  1.54214e-08
     0.872560  1.55677e-08
     0.872851  1.56977e-08
     0.873142  1.60329e-08
     0.873433  1.58030e-08
     0.873724  1.54532e-08
     0.874015  1.58989e-08
     0.874307  1.61326e-08
     0.874599  1.64023e-08
     0.874890  1.63376e-08
     0.875181  1.64359e-08
     0.875473  1.64735e-08
     0.875766  1.66787e-08
     0.876058  1.62321e-08
     0.876350  1.69501e-08
     0.876641  1.67477e-08
     0.876933  1.65130e-08
     0.877225  1.72939e-08
     0.877518  1.65801e-08
     0.877810  1.74535e-08
     0.878103  1.71041e-08
     0.878396  1.75249e-08
     0.878689  1.77352e-08
     0.878982  1.77612e-08
     0.879275  1.79062e-08
     0.879568  1.77470e-08
     0.879861  1.80964e-08
     0.880154  1.81991e-08
     0.880448  1.76229e-08
     0.880741  1.72726e-08
     0.881034  1.60907e-08
     0.881328  1.83910e-08
     0.881622  1.86682e-08
     0.881916  1.88353e-08
     0.882209  1.88980e-08
     0.882504  1.80754e-08
     0.882798  1.73567e-08
     0.883092  1.89703e-08
     0.883386  1.94231e-08
     0.883681  1.94934e-08
     0.883976  1.88003e-08
     0.884270  1.95676e-08
     0.884565  1.95023e-08
     0.884860  1.97885e-08
     0.885155  1.98351e-08
     0.885450  2.02141e-08
     0.885745  2.02151e-08
     0.886041  1.92850e-08
     0.886336  1.99689e-08
     0.886631  1.98552e-08
     0.886927  1.96860e-08
     0.887222  1.96732e-08
     0.887518  1.98857e-08
     0.887814  2.01648e-08
     0.888110  2.04122e-08
     0.888406  2.05848e-08
     0.888702  2.05433e-08
     0.888999  2.07236e-08
     0.889295  2.07346e-08
     0.889591  2.08114e-08
     0.889887  2.11142e-08
     0.890184  2.13107e-08
     0.890481  2.15242e-08
     0.890778  2.15155e-08
     0.891075  2.16834e-08
     0.891372  2.17868e-08
     0.891669  2.19922e-08
     0.891966  2.20858e-08
     0.892263  2.19127e-08
     0.892561  2.24557e-08
     0.892859  2.23977e-08
     0.893156  2.23242e-08
     0.893453  2.28110e-08
     0.893752  2.26805e-08
     0.894049  2.28708e-08
     0.894347  2.29017e-08
     0.894645  2.29502e-08
     0.894943  2.28400e-08
     0.895242  2.34158e-08
     0.895540  2.34262e-08
     0.895839  2.37306e-08
     0.896138  2.37741e-08
     0.896436  2.38770e-08
     0.896735  2.38947e-08
     0.897034  2.39707e-08
     0.897333  2.43708e-08
     0.897632  2.45251e-08
     0.897931  2.43470e-08
     0.898231  2.45510e-08
     0.898530  2.50940e-08
     0.898829  2.51303e-08
     0.899129  2.48930e-08
     0.899429  2.54631e-08
     0.899728  2.55933e-08
     0.900028  2.52834e-08
     0.900328  2.40390e-08
     0.900629  2.62162e-08
     0.900929  2.62957e-08
     0.901230  2.54470e-08
     0.901530  2.61944e-08
     0.901830  2.59127e-08
     0.902131  2.65775e-08
     0.902431  2.63656e-08
     0.902732  2.65109e-08
     0.903033  2.62179e-08
     0.903334  2.73177e-08
     0.903636  2.74652e-08
     0.903937  2.76104e-08
     0.904238  2.75715e-08
     0.904539  2.79290e-08
     0.904841  2.81939e-08
     0.905142  2.84956e-08
     0.905445  2.79623e-08
     0.905746  2.81873e-08
     0.906047  2.85223e-08
     0.906350  2.86843e-08
     0.906652  2.90513e-08
     0.906954  2.92625e-08
     0.907256  2.90876e-08
     0.907559  2.94946e-08
     0.907861  2.95250e-08
     0.908164  3.00716e-08
     0.908467  3.00747e-08
     0.908770  2.96738e-08
     0.909073  2.84458e-08
     0.909376  2.97579e-08
     0.909679  3.05455e-08
     0.909982  3.09906e-08
     0.910285  3.00240e-08
     0.910589  3.13230e-08
     0.910892  3.03937e-08
     0.911196  3.11903e-08
     0.911500  3.21627e-08
     0.911803  3.20706e-08
     0.912107  3.18730e-08
     0.912411  3.24870e-08
     0.912715  3.23255e-08
     0.913020  3.28319e-08
     0.913324  3.30571e-08
     0.913628  3.31226e-08
     0.913933  3.34648e-08
     0.914238  3.29671e-08
     0.914542  3.39335e-08
     0.914847  3.41238e-08
     0.915152  3.37287e-08
     0.915457  3.42045e-08
     0.915762  3.44844e-08
     0.916068  3.47485e-08
     0.916373  3.50306e-08
     0.916678  3.51306e-08
     0.916984  3.50626e-08
     0.917290  3.55674e-08
     0.917596  3.52539e-08
     0.917901  3.57406e-08
     0.918207  3.60698e-08
     0.918513  3.64577e-08
     0.918819  3.65544e-08
     0.919126  3.70593e-08
     0.919432  3.69549e-08
     0.919739  3.72405e-08
     0.920045  3.73049e-08
     0.920352  3.74809e-08
     0.920659  3.79252e-08
     0.920966  3.72339e-08
     0.921273  3.78288e-08
     0.921580  3.85655e-08
     0.921887  3.87561e-08
     0.922194  3.80565e-08
     0.922502  3.87851e-08
     0.922809  3.89503e-08
     0.923117  3.92950e-08
     0.923424  3.91658e-08
     0.923732  3.95575e-08
     0.924040  4.00181e-08
     0.924348  4.02288e-08
     0.924656  4.04279e-08
     0.924964  3.98926e-08
     0.925273  4.06296e-08
     0.925581  4.08083e-08
     0.925890  4.02848e-08
     0.926198  4.11018e-08
     0.926507  4.13341e-08
     0.926816  4.18490e-08
     0.927125  4.21539e-08
     0.927434  4.25109e-08
     0.927743  4.29064e-08
     0.928052  4.21597e-08
     0.928362  4.28301e-08
     0.928671  4.33897e-08
     0.928981  4.35152e-08
     0.929290  4.18859e-08
     0.929600  4.33505e-08
     0.929910  4.39044e-08
     0.930220  4.38775e-08
     0.930530  4.47150e-08
     0.930840  4.44032e-08
     0.931150  4.53229e-08
     0.931461  4.52963e-08
     0.931771  4.55883e-08
     0.932082  4.56000e-08
     0.932393  4.60623e-08
     0.932703  4.61479e-08
     0.933014  4.63440e-08
     0.933325  4.70582e-08
     0.933636  4.69153e-08
     0.933948  4.75055e-08
     0.934259  4.77454e-08
     0.934570  4.77657e-08
     0.934882  4.81618e-08
     0.935193  4.80763e-08
     0.935506  4.85627e-08
     0.935817  4.88844e-08
     0.936129  4.88596e-08
     0.936441  4.89488e-08
     0.936753  4.97484e-08
     0.937065  5.01326e-08
     0.937378  5.04089e-08
     0.937690  5.07385e-08
     0.938003  5.08519e-08
     0.938316  5.07696e-08
     0.938628  5.16721e-08
     0.938941  5.18865e-08
     0.939254  5.15509e-08
     0.939567  5.21957e-08
     0.939880  5.23337e-08
     0.940194  5.28308e-08
     0.940507  5.28571e-08
     0.940820  5.34033e-08
     0.941134  5.38765e-08
     0.941448  5.40933e-08
     0.941761  5.33043e-08
     0.942075  5.48645e-08
     0.942389  5.50579e-08
     0.942704  5.54836e-08
     0.943018  5.59499e-08
     0.943332  5.62870e-08
     0.943647  5.63938e-08
     0.943962  5.63411e-08
     0.944276  5.68090e-08
     0.944591  5.69587e-08
     0.944906  5.53323e-08
     0.945221  5.81606e-08
     0.945536  5.85550e-08
     0.945851  5.80227e-08
     0.946166  5.92629e-08
     0.946481  5.90632e-08
     0.946797  5.93989e-08
     0.947113  6.01587e-08
     0.947428  6.04309e-08
     0.947744  6.10583e-08
     0.948060  6.14922e-08
     0.948376  6.07189e-08
     0.948693  6.22050e-08
     0.949008  6.22306e-08
     0.949325  6.29150e-08
     0.949641  6.31330e-08
     0.949958  6.34677e-08
     0.950274  6.35762e-08
     0.950591  6.41084e-08
     0.950908  6.43535e-08
     0.951225  6.43845e-08
     0.951542  6.47839e-08
     0.951859  6.54606e-08
     0.952177  6.59232e-08
     0.952494  6.65984e-08
     0.952811  6.68184e-08
     0.953129  6.69353e-08
     0.953447  6.73336e-08
     0.953764  6.67829e-08
     0.954082  6.77744e-08
     0.954400  6.85003e-08
     0.954718  6.59280e-08
     0.955037  6.74071e-08
     0.955355  6.96637e-08
     0.955674  7.01136e-08
     0.955992  7.01800e-08
     0.956311  7.07394e-08
     0.956630  7.14294e-08
     0.956949  7.17514e-08
     0.957268  7.20883e-08
     0.957587  7.04847e-08
     0.957906  7.28003e-08
     0.958225  7.36188e-08
     0.958544  7.43510e-08
     0.958864  7.46750e-08
     0.959183  7.46364e-08
     0.959503  7.53222e-08
     0.959823  7.56354e-08
     0.960144  7.08662e-08
     0.960463  7.58181e-08
     0.960783  7.60376e-08
     0.961103  7.72662e-08
     0.961424  7.78728e-08
     0.961744  7.83010e-08
     0.962065  7.87852e-08
     0.962386  7.94339e-08
     0.962707  8.01455e-08
     0.963028  7.97418e-08
     0.963349  8.06127e-08
     0.963670  8.11291e-08
     0.963991  7.05728e-08
     0.964312  8.03028e-08
     0.964633  8.22382e-08
     0.964956  7.70136e-08
     0.965277  8.20739e-08
     0.965598  8.11828e-08
     0.965921  8.40109e-08
     0.966242  8.39062e-08
     0.966564  8.38261e-08
     0.966886  8.52156e-08
     0.967209  8.32674e-08
     0.967532  8.62873e-08
     0.967854  7.66242e-08
     0.968176  8.74456e-08
     0.968499  8.73997e-08
     0.968822  8.84256e-08
     0.969145  8.41199e-08
     0.969468  8.96502e-08
     0.969791  9.04090e-08
     0.970114  9.06265e-08
     0.970438  9.03596e-08
     0.970761  8.22940e-08
     0.971085  9.20517e-08
     0.971408  9.25614e-08
     0.971732  9.33022e-08
     0.972057  8.91648e-08
     0.972380  9.44458e-08
     0.972704  9.41583e-08
     0.973028  8.68706e-08
     0.973353  9.54238e-08
     0.973677  9.48044e-08
     0.974002  9.52156e-08
     0.974327  9.73950e-08
     0.974652  9.03386e-08
     0.974976  9.61358e-08
     0.975302  9.97249e-08
     0.975627  9.93312e-08
     0.975952  1.00051e-07
     0.976277  1.01062e-07
     0.976602  1.01782e-07
     0.976928  1.02020e-07
     0.977253  9.59073e-08
     0.977579  1.03375e-07
     0.977905  1.04026e-07
     0.978231  1.04435e-07
     0.978557  9.38148e-08
     0.978884  9.94995e-08
     0.979210  1.03707e-07
     0.979536  1.06413e-07
     0.979863  1.07292e-07
     0.980190  1.07953e-07
     0.980516  1.09144e-07
     0.980843  1.09582e-07
     0.981170  1.10236e-07
     0.981497  1.09443e-07
     0.981824  1.11350e-07
     0.982152  1.12159e-07
     0.982479  1.12067e-07
     0.982807  1.12692e-07
     0.983134  1.13138e-07
     0.983461  1.12183e-07
     0.983790  1.13601e-07
     0.984118  1.15865e-07
     0.984445  1.16478e-07
     0.984773  1.17218e-07
     0.985101  1.17624e-07
     0.985430  1.18620e-07
     0.985758  1.19970e-07
     0.986087  1.20213e-07
     0.986416  1.20376e-07
     0.986745  1.21308e-07
     0.987074  1.21272e-07
     0.987403  1.22572e-07
     0.987732  1.23926e-07
     0.988061  1.24890e-07
     0.988391  1.25114e-07
     0.988720  1.26437e-07
     0.989049  1.26190e-07
     0.989379  1.27911e-07
     0.989708  1.28246e-07
     0.990038  1.22396e-07
     0.990368  1.26010e-07
     0.990699  1.25713e-07
     0.991029  1.21165e-07
     0.991359  1.25378e-07
     0.991690  1.21296e-07
     0.992020  1.24345e-07
     0.992351  1.29518e-07
     0.992682  1.25795e-07
     0.993013  1.28396e-07
     0.993344  1.33426e-07
     0.993675  1.27807e-07
     0.994006  1.35526e-07
     0.994337  1.35997e-07
     0.994669  1.33855e-07
     0.995000  1.39252e-07
     0.995332  1.37529e-07
     0.995664  1.39564e-07
     0.995995  1.38784e-07
     0.996327  1.37887e-07
     0.996660  1.43648e-07
     0.996992  1.43298e-07
     0.997324  1.40419e-07
     0.997657  1.40478e-07
     0.997989  1.45447e-07
     0.998322  1.47068e-07
     0.998655  1.41899e-07
     0.998988  1.46402e-07
     0.999321  1.43973e-07
     0.999654  1.50621e-07
     0.999960  1.45804e-07
      1.00032  1.51776e-07
      1.00065  1.50973e-07
      1.00099  1.53010e-07
      1.00132  1.47948e-07
      1.00165  1.55390e-07
      1.00199  1.57182e-07
      1.00232  1.53976e-07
      1.00266  1.58430e-07
      1.00299  1.58103e-07
      1.00333  1.60562e-07
      1.00366  1.58196e-07
      1.00399  1.58925e-07
      1.00433  1.62639e-07
      1.00466  1.64343e-07
      1.00500  1.63345e-07
      1.00533  1.59524e-07
      1.00567  1.60973e-07
      1.00600  1.60878e-07
      1.00634  1.63322e-07
      1.00668  1.64242e-07
      1.00701  1.71623e-07
      1.00735  1.69477e-07
      1.00768  1.72165e-07
      1.00802  1.74408e-07
      1.00835  1.75317e-07
      1.00869  1.75469e-07
      1.00903  1.76462e-07
      1.00936  1.75383e-07
      1.00970  1.77310e-07
      1.01004  1.80187e-07
      1.01037  1.83069e-07
      1.01071  1.82271e-07
      1.01105  1.81345e-07
      1.01138  1.81811e-07
      1.01172  1.85647e-07
      1.01206  1.81744e-07
      1.01239  1.88244e-07
      1.01273  1.88230e-07
      1.01307  1.89610e-07
      1.01341  1.92047e-07
      1.01375  1.87117e-07
      1.01408  1.89275e-07
      1.01442  1.93363e-07
      1.01476  1.91005e-07
      1.01510  1.92355e-07
      1.01544  1.98803e-07
      1.01577  1.93576e-07
      1.01611  1.97960e-07
      1.01645  1.98294e-07
      1.01679  2.00984e-07
      1.01713  2.02145e-07
      1.01747  2.00915e-07
      1.01781  2.08714e-07
      1.01815  2.03744e-07
      1.01849  2.04408e-07
      1.01883  2.04632e-07
      1.01917  2.10251e-07
      1.01951  2.08590e-07
      1.01985  2.14054e-07
      1.02018  2.09740e-07
      1.02052  2.14008e-07
      1.02086  2.16106e-07
      1.02120  2.18677e-07
      1.02155  2.13973e-07
      1.02189  2.17857e-07
      1.02223  2.15427e-07
      1.02257  2.22811e-07
      1.02291  2.21480e-07
      1.02325  2.25784e-07
      1.02359  2.23820e-07
      1.02393  2.28946e-07
      1.02427  2.32779e-07
      1.02461  2.34484e-07
      1.02496  2.31295e-07
      1.02530  2.29463e-07
      1.02564  2.27488e-07
      1.02598  2.32244e-07
      1.02632  2.27953e-07
      1.02667  2.27278e-07
      1.02701  2.37575e-07
      1.02735  2.36311e-07
      1.02769  2.36133e-07
      1.02804  2.40347e-07
      1.02838  2.35146e-07
      1.02872  2.40713e-07
      1.02906  2.44382e-07
      1.02941  2.41912e-07
      1.02975  2.51062e-07
      1.03009  2.48766e-07
      1.03044  2.42938e-07
      1.03078  2.56511e-07
      1.03112  2.56761e-07
      1.03147  2.58392e-07
      1.03181  2.58291e-07
      1.03216  2.56604e-07
      1.03250  2.56151e-07
      1.03284  2.61527e-07
      1.03319  2.60766e-07
      1.03353  2.65652e-07
      1.03388  2.62824e-07
      1.03422  2.62477e-07
      1.03456  2.34525e-07
      1.03491  2.61927e-07
      1.03525  2.65795e-07
      1.03560  2.78281e-07
      1.03595  2.74118e-07
      1.03629  2.82610e-07
      1.03664  2.78930e-07
      1.03698  2.79186e-07
      1.03733  2.85165e-07
      1.03767  2.88699e-07
      1.03802  2.80687e-07
      1.03837  2.81583e-07
      1.03871  2.94212e-07
      1.03906  2.89009e-07
      1.03940  2.88115e-07
      1.03975  2.86539e-07
      1.04010  2.80853e-07
      1.04044  2.98023e-07
      1.04079  3.04801e-07
      1.04114  3.03830e-07
      1.04148  2.92062e-07
      1.04183  3.00347e-07
      1.04218  3.07635e-07
      1.04253  3.03273e-07
      1.04287  3.00464e-07
      1.04322  3.04204e-07
      1.04357  3.13980e-07
      1.04392  3.17018e-07
      1.04427  3.17074e-07
      1.04461  3.21535e-07
      1.04496  3.18369e-07
      1.04531  3.22490e-07
      1.04566  3.27937e-07
      1.04601  3.27100e-07
      1.04636  3.28529e-07
      1.04670  3.25254e-07
      1.04705  3.26191e-07
      1.04740  3.23060e-07
      1.04775  3.38230e-07
      1.04810  3.34623e-07
      1.04845  3.34629e-07
      1.04880  3.38490e-07
      1.04915  3.43676e-07
      1.04950  3.46925e-07
      1.04985  3.30493e-07
      1.05020  3.51073e-07
      1.05055  3.50395e-07
      1.05090  3.52964e-07
      1.05125  3.47627e-07
      1.05160  3.47315e-07
      1.05195  3.58194e-07
      1.05230  3.51353e-07
      1.05265  3.56258e-07
      1.05300  3.68436e-07
      1.05335  3.66214e-07
      1.05370  3.73959e-07
      1.05405  3.65948e-07
      1.05441  3.67875e-07
      1.05476  3.79999e-07
      1.05511  3.74634e-07
      1.05546  3.76510e-07
      1.05581  3.75899e-07
      1.05616  3.80419e-07
      1.05652  3.87091e-07
      1.05687  3.84481e-07
      1.05722  3.83328e-07
      1.05757  3.87133e-07
      1.05793  3.94327e-07
      1.05828  3.97265e-07
      1.05863  3.79584e-07
      1.05898  3.94629e-07
      1.05934  4.00693e-07
      1.05969  4.03651e-07
      1.06004  4.09370e-07
      1.06040  4.08642e-07
      1.06075  3.97369e-07
      1.06110  4.04741e-07
      1.06146  4.16364e-07
      1.06181  4.19483e-07
      1.06217  4.16154e-07
      1.06252  4.22444e-07
      1.06287  4.20214e-07
      1.06323  4.32329e-07
      1.06358  4.28903e-07
      1.06394  4.29770e-07
      1.06429  4.33319e-07
      1.06465  4.33757e-07
      1.06500  4.37031e-07
      1.06536  4.37666e-07
      1.06571  4.28709e-07
      1.06607  4.48662e-07
      1.06642  4.25068e-07
      1.06678  4.49617e-07
      1.06713  4.41052e-07
      1.06749  4.55386e-07
      1.06784  4.41760e-07
      1.06820  4.62337e-07
      1.06856  4.54113e-07
      1.06891  4.62012e-07
      1.06927  4.61307e-07
      1.06963  4.65466e-07
      1.06998  4.71392e-07
      1.07034  4.74040e-07
      1.07070  4.62873e-07
      1.07105  4.79370e-07
      1.07141  4.79738e-07
      1.07177  4.80691e-07
      1.07212  4.83493e-07
      1.07248  4.90968e-07
      1.07284  4.69316e-07
      1.07320  4.92327e-07
      1.07355  4.80658e-07
      1.07391  5.00018e-07
      1.07427  5.02909e-07
      1.07463  4.99841e-07
      1.07499  5.09169e-07
      1.07535  5.06546e-07
      1.07570  5.12307e-07
      1.07606  5.07965e-07
      1.07642  5.20098e-07
      1.07678  5.21521e-07
      1.07714  5.22987e-07
      1.07750  5.32285e-07
      1.07786  5.19517e-07
      1.07822  5.38117e-07
      1.07858  5.30570e-07
      1.07894  5.38103e-07
      1.07930  5.44763e-07
      1.07966  5.31200e-07
      1.08001  5.43986e-07
      1.08037  5.46208e-07
      1.08073  5.39401e-07
      1.08109  5.42995e-07
      1.08145  5.35625e-07
      1.08182  5.55157e-07
      1.08218  5.63793e-07
      1.08254  5.68079e-07
      1.08290  5.59141e-07
      1.08326  5.71071e-07
      1.08362  5.71035e-07
      1.08398  5.82733e-07
      1.08434  5.86347e-07
      1.08470  5.81217e-07
      1.08507  5.84736e-07
      1.08543  5.88297e-07
      1.08579  5.85602e-07
      1.08615  6.00215e-07
      1.08651  5.96011e-07
      1.08687  6.06832e-07
      1.08724  5.98538e-07
      1.08760  6.10309e-07
      1.08796  6.12644e-07
      1.08833  6.21810e-07
      1.08869  6.15533e-07
      1.08905  6.11996e-07
      1.08941  6.31146e-07
      1.08978  6.26528e-07
      1.09014  6.35712e-07
      1.09050  6.42018e-07
      1.09087  6.33662e-07
      1.09123  6.28077e-07
      1.09160  6.53164e-07
      1.09196  6.39398e-07
      1.09232  6.47004e-07
      1.09269  6.53859e-07
      1.09305  6.61512e-07
      1.09342  6.64974e-07
      1.09378  6.65636e-07
      1.09414  6.75105e-07
      1.09451  6.77653e-07
      1.09487  6.80966e-07
      1.09524  6.77738e-07
      1.09560  6.80615e-07
      1.09597  6.85705e-07
      1.09633  6.85894e-07
      1.09670  6.84209e-07
      1.09706  6.95697e-07
      1.09743  6.98004e-07
      1.09780  6.94636e-07
      1.09816  7.03724e-07
      1.09853  6.98228e-07
      1.09889  7.18042e-07
      1.09926  7.23063e-07
      1.09963  7.24721e-07
      1.09999  7.24613e-07
      1.10036  7.28781e-07
      1.10073  7.41040e-07
      1.10109  7.35018e-07
      1.10146  7.36877e-07
      1.10183  7.38763e-07
      1.10220  7.51885e-07
      1.10256  7.42485e-07
      1.10293  7.56958e-07
      1.10330  7.58612e-07
      1.10367  7.59834e-07
      1.10403  7.61598e-07
      1.10440  7.73932e-07
      1.10477  7.63602e-07
      1.10514  7.79143e-07
      1.10551  7.82865e-07
      1.10588  7.84476e-07
      1.10624  7.91554e-07
      1.10661  7.97209e-07
      1.10698  7.86171e-07
      1.10735  8.00724e-07
      1.10772  8.08591e-07
      1.10809  8.07856e-07
      1.10846  8.15738e-07
      1.10883  8.19239e-07
      1.10920  8.19726e-07
      1.10957  8.27535e-07
      1.10994  8.25205e-07
      1.11031  8.37703e-07
      1.11068  8.40732e-07
      1.11105  8.38746e-07
      1.11142  8.49665e-07
      1.11179  8.51399e-07
      1.11216  8.41010e-07
      1.11253  8.52368e-07
      1.11290  8.70512e-07
      1.11327  8.70589e-07
      1.11364  8.69609e-07
      1.11401  8.72480e-07
      1.11439  8.88499e-07
      1.11476  8.94229e-07
      1.11513  8.80699e-07
      1.11550  8.96016e-07
      1.11587  8.87741e-07
      1.11624  9.06524e-07
      1.11662  9.05198e-07
      1.11699  9.18595e-07
      1.11736  9.15615e-07
      1.11773  9.19627e-07
      1.11811  9.31704e-07
      1.11848  9.38994e-07
      1.11885  9.39037e-07
      1.11922  9.28820e-07
      1.11960  9.49095e-07
      1.11997  9.36046e-07
      1.12034  9.58048e-07
      1.12072  9.54955e-07
      1.12109  9.62414e-07
      1.12146  9.63041e-07
      1.12184  9.79877e-07
      1.12221  9.73153e-07
      1.12259  9.78805e-07
      1.12296  9.89247e-07
      1.12333  9.95575e-07
      1.12371  1.00003e-06
      1.12408  1.01228e-06
      1.12446  1.01257e-06
      1.12483  9.89407e-07
      1.12521  1.01556e-06
      1.12558  9.38511e-07
      1.12596  9.79583e-07
      1.12633  1.03255e-06
      1.12671  1.04542e-06
      1.12708  1.04411e-06
      1.12746  1.04732e-06
      1.12784  1.03756e-06
      1.12821  1.06089e-06
      1.12859  1.07420e-06
      1.12896  1.06042e-06
      1.12934  1.06770e-06
      1.12972  1.07753e-06
      1.13009  1.06127e-06
      1.13047  1.07584e-06
      1.13085  1.10186e-06
      1.13122  1.09275e-06
      1.13160  1.11006e-06
      1.13198  1.11805e-06
      1.13236  1.11672e-06
      1.13273  1.12836e-06
      1.13311  1.12875e-06
      1.13349  1.12816e-06
      1.13387  1.14528e-06
      1.13424  1.13000e-06
      1.13462  1.15294e-06
      1.13500  1.14880e-06
      1.13538  1.16753e-06
      1.13576  1.16751e-06
      1.13614  1.16629e-06
      1.13651  1.17956e-06
      1.13689  1.17905e-06
      1.13727  1.18956e-06
      1.13765  1.16317e-06
      1.13803  1.18876e-06
      1.13841  1.06121e-06
      1.13879  1.19708e-06
      1.13917  1.21521e-06
      1.13955  1.19949e-06
      1.13993  1.22656e-06
      1.14031  1.21382e-06
      1.14069  1.04934e-06
      1.14107  1.23465e-06
      1.14145  1.25647e-06
      1.14183  1.26395e-06
      1.14221  1.26759e-06
      1.14259  1.22495e-06
      1.14297  1.27729e-06
      1.14335  1.28629e-06
      1.14373  1.29231e-06
      1.14411  1.24523e-06
      1.14450  1.30029e-06
      1.14488  1.30897e-06
      1.14526  1.31334e-06
      1.14564  1.31301e-06
      1.14602  1.33595e-06
      1.14641  1.32264e-06
      1.14679  1.34243e-06
      1.14717  1.34363e-06
      1.14755  1.33563e-06
      1.14793  1.34854e-06
      1.14832  1.36056e-06
      1.14870  1.34937e-06
      1.14908  1.38884e-06
      1.14947  1.38440e-06
      1.14985  1.39497e-06
      1.15023  1.40992e-06
      1.15061  1.40752e-06
      1.15100  1.40508e-06
      1.15138  1.42540e-06
      1.15177  1.42795e-06
      1.15215  1.43375e-06
      1.15253  1.44259e-06
      1.15292  1.45147e-06
      1.15330  1.45793e-06
      1.15369  1.46018e-06
      1.15407  1.46011e-06
      1.15446  1.46823e-06
      1.15484  1.47914e-06
      1.15523  1.48396e-06
      1.15561  1.49307e-06
      1.15600  1.49915e-06
      1.15638  1.51412e-06
      1.15677  1.50221e-06
      1.15715  1.52055e-06
      1.15754  1.53306e-06
      1.15792  1.53199e-06
      1.15831  1.54377e-06
      1.15870  1.55065e-06
      1.15908  1.56001e-06
      1.15947  1.55803e-06
      1.15986  1.51532e-06
      1.16024  1.58392e-06
      1.16063  1.58476e-06
      1.16102  1.48343e-06
      1.16140  1.54413e-06
      1.16179  1.61286e-06
      1.16218  1.61997e-06
      1.16256  1.62040e-06
      1.16295  1.63274e-06
      1.16334  1.64437e-06
      1.16373  1.63512e-06
      1.16411  1.55534e-06
      1.16450  1.66780e-06
      1.16489  1.67165e-06
      1.16528  1.67478e-06
      1.16567  1.67531e-06
      1.16606  1.69210e-06
      1.16645  1.70578e-06
      1.16683  1.71538e-06
      1.16722  1.71115e-06
      1.16761  1.72361e-06
      1.16800  1.72681e-06
      1.16839  1.74109e-06
      1.16878  1.74634e-06
      1.16917  1.61368e-06
      1.16956  1.72936e-06
      1.16995  1.77806e-06
      1.17034  1.78547e-06
      1.17073  1.79055e-06
      1.17112  1.79528e-06
      1.17151  1.80105e-06
      1.17190  1.80850e-06
      1.17229  1.82765e-06
      1.17268  1.82488e-06
      1.17307  1.84404e-06
      1.17347  1.85421e-06
      1.17386  1.83204e-06
      1.17425  1.87076e-06
      1.17464  1.87369e-06
      1.17503  1.87812e-06
      1.17542  1.88419e-06
      1.17581  1.90017e-06
      1.17621  1.90971e-06
      1.17660  1.91564e-06
      1.17699  1.90697e-06
      1.17738  1.84821e-06
      1.17778  1.82086e-06
      1.17817  1.94142e-06
      1.17856  1.82892e-06
      1.17895  1.96158e-06
      1.17935  1.96427e-06
      1.17974  1.98899e-06
      1.18013  1.97294e-06
      1.18053  2.00555e-06
      1.18092  2.01385e-06
      1.18131  2.01030e-06
      1.18171  2.02361e-06
      1.18210  2.04320e-06
      1.18249  2.03012e-06
      1.18289  1.96865e-06
      1.18328  1.81299e-06
      1.18368  2.06328e-06
      1.18407  2.08251e-06
      1.18447  2.08738e-06
      1.18486  2.10202e-06
      1.18526  2.09541e-06
      1.18565  2.11633e-06
      1.18605  2.13896e-06
      1.18644  2.14031e-06
      1.18684  2.14268e-06
      1.18723  2.16097e-06
      1.18763  2.17209e-06
      1.18802  2.18193e-06
      1.18842  2.04951e-06
      1.18882  1.99996e-06
      1.18921  2.19795e-06
      1.18961  2.16189e-06
      1.19001  2.22174e-06
      1.19040  2.23917e-06
      1.19080  2.24755e-06
      1.19120  2.24760e-06
      1.19159  2.24817e-06
      1.19199  2.28230e-06
      1.19239  2.28855e-06
      1.19279  2.29776e-06
      1.19318  2.30438e-06
      1.19358  2.30852e-06
      1.19398  2.32462e-06
      1.19438  2.32754e-06
      1.19477  2.34558e-06
      1.19517  2.25837e-06
      1.19557  2.34629e-06
      1.19597  2.26183e-06
      1.19637  2.37024e-06
      1.19677  2.38696e-06
      1.19717  2.38580e-06
      1.19756  2.06395e-06
      1.19796  2.38841e-06
      1.19836  2.41612e-06
      1.19876  2.39483e-06
      1.19916  2.44312e-06
      1.19956  2.41978e-06
      1.19996  2.46984e-06
      1.20036  2.48096e-06
      1.20076  2.50095e-06
      1.20116  2.49739e-06
      1.20156  2.51977e-06
      1.20196  2.51558e-06
      1.20236  2.53270e-06
      1.20276  2.54461e-06
      1.20317  2.54760e-06
      1.20357  2.48570e-06
      1.20397  2.59599e-06
      1.20437  2.59481e-06
      1.20477  2.59267e-06
      1.20517  2.61564e-06
      1.20557  2.63082e-06
      1.20598  2.65180e-06
      1.20638  2.65817e-06
      1.20678  2.64167e-06
      1.20718  2.66678e-06
      1.20758  2.66869e-06
      1.20799  2.69451e-06
      1.20839  2.67735e-06
      1.20879  2.49689e-06
      1.20920  2.69744e-06
      1.20960  2.75261e-06
      1.21000  2.77150e-06
      1.21040  2.77033e-06
      1.21081  2.74883e-06
      1.21121  2.78600e-06
      1.21162  2.79816e-06
      1.21202  2.81569e-06
      1.21242  2.83588e-06
      1.21283  2.84639e-06
      1.21323  2.83264e-06
      1.21364  2.87369e-06
      1.21404  2.88883e-06
      1.21445  2.88922e-06
      1.21485  2.91051e-06
      1.21526  2.92685e-06
      1.21566  2.93889e-06
      1.21607  2.92667e-06
      1.21647  2.94045e-06
      1.21688  2.95415e-06
      1.21728  2.99466e-06
      1.21769  3.00590e-06
      1.21809  3.01710e-06
      1.21850  3.02217e-06
      1.21891  3.02736e-06
      1.21931  3.04379e-06
      1.21972  3.06229e-06
      1.22013  3.04776e-06
      1.22053  3.07673e-06
      1.22094  3.10016e-06
      1.22135  3.09947e-06
      1.22175  3.12145e-06
      1.22216  3.14348e-06
      1.22257  3.14238e-06
      1.22298  3.16156e-06
      1.22338  3.18442e-06
      1.22379  3.16208e-06
      1.22420  3.20327e-06
      1.22461  3.21419e-06
      1.22502  3.23231e-06
      1.22542  3.24556e-06
      1.22583  3.25749e-06
      1.22624  3.28411e-06
      1.22665  3.28021e-06
      1.22706  3.31381e-06
      1.22747  3.26682e-06
      1.22788  3.32839e-06
      1.22829  3.35327e-06
      1.22870  3.35625e-06
      1.22910  3.36609e-06
      1.22951  3.38288e-06
      1.22992  3.39626e-06
      1.23033  3.40029e-06
      1.23074  3.42548e-06
      1.23115  3.43315e-06
      1.23156  3.44522e-06
      1.23198  3.46798e-06
      1.23239  3.46409e-06
      1.23280  3.49447e-06
      1.23321  3.48381e-06
      1.23362  3.51456e-06
      1.23403  3.54448e-06
      1.23444  3.55629e-06
      1.23485  3.56896e-06
      1.23527  3.57064e-06
      1.23568  3.60278e-06
      1.23609  3.59513e-06
      1.23650  3.61361e-06
      1.23691  3.63231e-06
      1.23732  3.66380e-06
      1.23774  3.67047e-06
      1.23815  3.69192e-06
      1.23856  3.71335e-06
      1.23898  3.70587e-06
      1.23939  3.68157e-06
      1.23980  3.74114e-06
      1.24021  3.74705e-06
      1.24063  3.75847e-06
      1.24104  3.74253e-06
      1.24146  3.78461e-06
      1.24187  3.79207e-06
      1.24228  3.78877e-06
      1.24270  3.80517e-06
      1.24311  3.85101e-06
      1.24353  3.74102e-06
      1.24394  3.87478e-06
      1.24435  3.90397e-06
      1.24477  3.92315e-06
      1.24519  3.92873e-06
      1.24560  3.94256e-06
      1.24601  3.98660e-06
      1.24643  3.97345e-06
      1.24685  3.99053e-06
      1.24726  4.01873e-06
      1.24768  4.00934e-06
      1.24809  4.04454e-06
      1.24851  4.07505e-06
      1.24892  4.08340e-06
      1.24934  4.10810e-06
      1.24976  4.10713e-06
      1.25017  4.09623e-06
      1.25059  4.16992e-06
      1.25101  4.17652e-06
      1.25143  4.18122e-06
      1.25184  4.15191e-06
      1.25226  4.21850e-06
      1.25268  4.02377e-06
      1.25309  4.24282e-06
      1.25351  4.24349e-06
      1.25393  4.29891e-06
      1.25435  4.30971e-06
      1.25477  4.32211e-06
      1.25518  4.31845e-06
      1.25560  4.35705e-06
      1.25602  4.34477e-06
      1.25644  4.40520e-06
      1.25686  4.41174e-06
      1.25728  4.38696e-06
      1.25770  4.44005e-06
      1.25812  4.46273e-06
      1.25854  4.49440e-06
      1.25896  4.48316e-06
      1.25937  4.50572e-06
      1.25979  4.52269e-06
      1.26022  4.51243e-06
      1.26064  4.56833e-06
      1.26105  4.57979e-06
      1.26147  4.58642e-06
      1.26189  4.60729e-06
      1.26232  4.63829e-06
      1.26274  4.67707e-06
      1.26316  4.66894e-06
      1.26358  4.69203e-06
      1.26400  4.69693e-06
      1.26442  4.68574e-06
      1.26484  4.74261e-06
      1.26526  4.77448e-06
      1.26569  4.80447e-06
      1.26611  4.79457e-06
      1.26653  4.83491e-06
      1.26695  4.85230e-06
      1.26737  4.79588e-06
      1.26780  4.87761e-06
      1.26822  4.72095e-06
      1.26864  4.92740e-06
      1.26907  4.94719e-06
      1.26949  4.99232e-06
      1.26991  4.97328e-06
      1.27033  4.97945e-06
      1.27076  4.99886e-06
      1.27118  5.04886e-06
      1.27161  5.08033e-06
      1.27203  5.08910e-06
      1.27245  5.12390e-06
      1.27288  5.13826e-06
      1.27330  5.15199e-06
      1.27373  5.16586e-06
      1.27415  5.07976e-06
      1.27458  5.13803e-06
      1.27500  5.15883e-06
      1.27543  5.19206e-06
      1.27585  5.27965e-06
      1.27628  5.28428e-06
      1.27670  5.30061e-06
      1.27713  5.30501e-06
      1.27755  5.32472e-06
      1.27798  5.35978e-06
      1.27840  5.38114e-06
      1.27883  5.39491e-06
      1.27926  5.45846e-06
      1.27968  5.44590e-06
      1.28011  5.47539e-06
      1.28054  5.48729e-06
      1.28096  5.49271e-06
      1.28139  5.46847e-06
      1.28182  5.34926e-06
      1.28225  5.56407e-06
      1.28267  5.20194e-06
      1.28310  5.55811e-06
      1.28353  5.43559e-06
      1.28395  5.64799e-06
      1.28438  5.64768e-06
      1.28481  5.67846e-06
      1.28524  5.52731e-06
      1.28567  5.75893e-06
      1.28610  5.69900e-06
      1.28653  5.77189e-06
      1.28695  5.79307e-06
      1.28738  5.84535e-06
      1.28781  5.83426e-06
      1.28824  5.80887e-06
      1.28867  5.83013e-06
      1.28910  5.91062e-06
      1.28953  5.91593e-06
      1.28996  5.92528e-06
      1.29039  5.60385e-06
      1.29082  6.00797e-06
      1.29125  5.83757e-06
      1.29168  6.02115e-06
      1.29211  6.06893e-06
      1.29254  6.02618e-06
      1.29297  6.08476e-06
      1.29340  6.12601e-06
      1.29384  6.09952e-06
      1.29427  6.20469e-06
      1.29470  6.16486e-06
      1.29513  6.18143e-06
      1.29556  6.23612e-06
      1.29599  6.27648e-06
      1.29642  6.31972e-06
      1.29686  6.32639e-06
      1.29729  6.35556e-06
      1.29772  6.33612e-06
      1.29815  6.30296e-06
      1.29859  6.43341e-06
      1.29902  6.39025e-06
      1.29945  6.49135e-06
      1.29989  6.49593e-06
      1.30032  6.49780e-06
      1.30075  6.53663e-06
      1.30119  6.52253e-06
      1.30162  6.51279e-06
      1.30205  6.60555e-06
      1.30249  6.66247e-06
      1.30292  6.66521e-06
      1.30336  6.68999e-06
      1.30379  6.59202e-06
      1.30423  6.73801e-06
      1.30466  6.78482e-06
      1.30509  6.79399e-06
      1.30553  6.77365e-06
      1.30596  6.84281e-06
      1.30640  6.84102e-06
      1.30684  6.88405e-06
      1.30727  6.88850e-06
      1.30771  6.96220e-06
      1.30814  6.85863e-06
      1.30858  6.96929e-06
      1.30902  6.98050e-06
      1.30945  6.99904e-06
      1.30989  7.05992e-06
      1.31033  7.09512e-06
      1.31076  7.09430e-06
      1.31120  7.16661e-06
      1.31164  7.11227e-06
      1.31207  7.13149e-06
      1.31251  6.29502e-06
      1.31295  6.69445e-06
      1.31339  7.18252e-06
      1.31382  7.05136e-06
      1.31426  7.27834e-06
      1.31470  7.34189e-06
      1.31514  7.13775e-06
      1.31558  6.50320e-06
      1.31602  7.37770e-06
      1.31645  7.46766e-06
      1.31689  7.48974e-06
      1.31733  7.50293e-06
      1.31777  7.55010e-06
      1.31821  7.57371e-06
      1.31865  7.59094e-06
      1.31909  7.66058e-06
      1.31953  7.64824e-06
      1.31997  7.68608e-06
      1.32041  7.61432e-06
      1.32085  7.71334e-06
      1.32129  7.75202e-06
      1.32173  7.74550e-06
      1.32217  7.71846e-06
      1.32261  7.83858e-06
      1.32305  7.89381e-06
      1.32349  7.88474e-06
      1.32393  7.89072e-06
      1.32437  7.97543e-06
      1.32482  7.94866e-06
      1.32526  7.95475e-06
      1.32570  8.02615e-06
      1.32614  8.04003e-06
      1.32658  8.07305e-06
      1.32703  7.98646e-06
      1.32747  8.11821e-06
      1.32791  8.14268e-06
      1.32835  8.10634e-06
      1.32880  8.20086e-06
      1.32924  8.19232e-06
      1.32968  7.96276e-06
      1.33012  8.29652e-06
      1.33057  8.28870e-06
      1.33101  8.29652e-06
      1.33145  8.33387e-06
      1.33190  8.16584e-06
      1.33234  7.57989e-06
      1.33279  8.36806e-06
      1.33323  8.46697e-06
      1.33368  8.47853e-06
      1.33412  8.35663e-06
      1.33457  8.40080e-06
      1.33501  8.20538e-06
      1.33545  8.39809e-06
      1.33590  8.35357e-06
      1.33635  8.58468e-06
      1.33679  8.59576e-06
      1.33724  8.41890e-06
      1.33768  8.57680e-06
      1.33813  8.62861e-06
      1.33857  8.66762e-06
      1.33902  8.75675e-06
      1.33947  8.62080e-06
      1.33991  8.64419e-06
      1.34036  8.77779e-06
      1.34081  8.87565e-06
      1.34125  8.88088e-06
      1.34170  8.80491e-06
      1.34215  8.82812e-06
      1.34259  8.83260e-06
      1.34304  8.95533e-06
      1.34349  8.89829e-06
      1.34394  9.05732e-06
      1.34439  9.09040e-06
      1.34484  8.85850e-06
      1.34528  9.26846e-06
      1.34573  9.22618e-06
      1.34618  9.32855e-06
      1.34663  9.04905e-06
      1.34708  9.29870e-06
      1.34753  9.25523e-06
      1.34798  9.26343e-06
      1.34843  9.31942e-06
      1.34887  9.39740e-06
      1.34932  9.53205e-06
      1.34977  9.49129e-06
      1.35022  9.26423e-06
      1.35067  9.38141e-06
      1.35112  9.62185e-06
      1.35157  9.57923e-06
      1.35203  9.59453e-06
      1.35248  9.60984e-06
      1.35293  9.67373e-06
      1.35338  9.81891e-06
      1.35383  9.68238e-06
      1.35428  9.75710e-06
      1.35473  9.77630e-06
      1.35518  9.75706e-06
      1.35564  9.78015e-06
      1.35609  9.99922e-06
      1.35654  9.96044e-06
      1.35699  9.94048e-06
      1.35744  1.01173e-05
      1.35790  1.00153e-05
      1.35835  1.00298e-05
      1.35880  1.01377e-05
      1.35925  1.02008e-05
      1.35971  1.00555e-05
      1.36016  1.02942e-05
      1.36061  1.01341e-05
      1.36107  1.03057e-05
      1.36152  1.02457e-05
      1.36197  1.03232e-05
      1.36243  1.02436e-05
      1.36288  1.00303e-05
      1.36334  1.04244e-05
      1.36379  1.05544e-05
      1.36425  1.05074e-05
      1.36470  1.02728e-05
      1.36516  1.06563e-05
      1.36561  1.06876e-05
      1.36607  1.07664e-05
      1.36652  1.06597e-05
      1.36698  1.07089e-05
      1.36743  1.08045e-05
      1.36789  1.08606e-05
      1.36835  1.09713e-05
      1.36880  1.07564e-05
      1.36926  1.09818e-05
      1.36971  1.09805e-05
      1.37017  1.10930e-05
      1.37063  1.10833e-05
      1.37108  1.10208e-05
      1.37154  1.11274e-05
      1.37200  1.12285e-05
      1.37246  1.12305e-05
      1.37291  1.12828e-05
      1.37337  1.13045e-05
      1.37383  1.13634e-05
      1.37429  1.13754e-05
      1.37474  1.14114e-05
      1.37520  1.14981e-05
      1.37566  1.15639e-05
      1.37612  1.14878e-05
      1.37658  1.16144e-05
      1.37704  1.16467e-05
      1.37750  1.16662e-05
      1.37795  1.16536e-05
      1.37841  1.17439e-05
      1.37887  1.17324e-05
      1.37933  1.17668e-05
      1.37979  1.19350e-05
      1.38025  1.19821e-05
      1.38071  1.19004e-05
      1.38117  1.19959e-05
      1.38163  1.21153e-05
      1.38209  1.21078e-05
      1.38256  1.19222e-05
      1.38302  1.21106e-05
      1.38348  1.21956e-05
      1.38394  1.22158e-05
      1.38440  1.22847e-05
      1.38486  1.22933e-05
      1.38532  1.20510e-05
      1.38578  1.23748e-05
      1.38625  1.23444e-05
      1.38671  1.20767e-05
      1.38717  1.25602e-05
      1.38763  1.25748e-05
      1.38810  1.23395e-05
      1.38856  1.25598e-05
      1.38902  1.25779e-05
      1.38948  1.26467e-05
      1.38995  1.24899e-05
      1.39041  1.26848e-05
      1.39087  1.22435e-05
      1.39134  1.09012e-05
      1.39180  1.12047e-05
      1.39226  1.21722e-05
      1.39273  1.19439e-05
      1.39319  1.22075e-05
      1.39366  1.21841e-05
      1.39412  1.29275e-05
      1.39459  1.24515e-05
      1.39505  1.24044e-05
      1.39552  1.23958e-05
      1.39598  1.32763e-05
      1.39645  1.31938e-05
      1.39691  1.26618e-05
      1.39738  1.31894e-05
      1.39784  1.25256e-05
      1.39831  1.25009e-05
      1.39878  1.33403e-05
      1.39924  1.34485e-05
      1.39971  1.31259e-05
      1.40018  1.30862e-05
      1.40064  1.26600e-05
      1.40111  1.35075e-05
      1.40158  1.33101e-05
      1.40204  1.33960e-05
      1.40251  1.36442e-05
      1.40298  1.39248e-05
      1.40345  1.36104e-05
      1.40391  1.39489e-05
      1.40438  1.29673e-05
      1.40485  1.38379e-05
      1.40532  1.41204e-05
      1.40579  1.34402e-05
      1.40626  1.42046e-05
      1.40672  1.40176e-05
      1.40719  1.40959e-05
      1.40766  1.42064e-05
      1.40813  1.40222e-05
      1.40860  1.34529e-05
      1.40907  1.41766e-05
      1.40954  1.43398e-05
      1.41001  1.45808e-05
      1.41048  1.38610e-05
      1.41095  1.44410e-05
      1.41142  1.44146e-05
      1.41189  1.45164e-05
      1.41236  1.41692e-05
      1.41283  1.45046e-05
      1.41330  1.38716e-05
      1.41377  1.49144e-05
      1.41425  1.44506e-05
      1.41472  1.45792e-05
      1.41519  1.50038e-05
      1.41566  1.50361e-05
      1.41613  1.44197e-05
      1.41660  1.50600e-05
      1.41708  1.48438e-05
      1.41755  1.48079e-05
      1.41802  1.50411e-05
      1.41849  1.47109e-05
      1.41897  1.46824e-05
      1.41944  1.51067e-05
      1.41991  1.53340e-05
      1.42039  1.54478e-05
      1.42086  1.54479e-05
      1.42133  1.54354e-05
      1.42181  1.53791e-05
      1.42228  1.55828e-05
      1.42276  1.52886e-05
      1.42323  1.55118e-05
      1.42370  1.53556e-05
      1.42418  1.53664e-05
      1.42465  1.59111e-05
      1.42513  1.56259e-05
      1.42560  1.50344e-05
      1.42608  1.52946e-05
      1.42655  1.52549e-05
      1.42703  1.58100e-05
      1.42751  1.48152e-05
      1.42798  1.61848e-05
      1.42846  1.59153e-05
      1.42893  1.56374e-05
      1.42941  1.61085e-05
      1.42989  1.64339e-05
      1.43036  1.64952e-05
      1.43084  1.66057e-05
      1.43132  1.62105e-05
      1.43179  1.64188e-05
      1.43227  1.66107e-05
      1.43275  1.66023e-05
      1.43323  1.68665e-05
      1.43370  1.65988e-05
      1.43418  1.59508e-05
      1.43466  1.62352e-05
      1.43514  1.66740e-05
      1.43562  1.63444e-05
      1.43609  1.69118e-05
      1.43657  1.69309e-05
      1.43705  1.68877e-05
      1.43753  1.68809e-05
      1.43801  1.69613e-05
      1.43849  1.74810e-05
      1.43897  1.73221e-05
      1.43945  1.68577e-05
      1.43993  1.71940e-05
      1.44041  1.69719e-05
      1.44089  1.73689e-05
      1.44137  1.74177e-05
      1.44185  1.77632e-05
      1.44233  1.74134e-05
      1.44281  1.75034e-05
      1.44329  1.78929e-05
      1.44377  1.79238e-05
      1.44425  1.78053e-05
      1.44474  1.78024e-05
      1.44522  1.77000e-05
      1.44570  1.78692e-05
      1.44618  1.82645e-05
      1.44666  1.77825e-05
      1.44714  1.78007e-05
      1.44763  1.81855e-05
      1.44811  1.83497e-05
      1.44859  1.84819e-05
      1.44907  1.84495e-05
      1.44956  1.85192e-05
      1.45004  1.84217e-05
      1.45053  1.84004e-05
      1.45101  1.81039e-05
      1.45149  1.84480e-05
      1.45197  1.81869e-05
      1.45246  1.87457e-05
      1.45294  1.90794e-05
      1.45343  1.88371e-05
      1.45391  1.89673e-05
      1.45440  1.89639e-05
      1.45488  1.91606e-05
      1.45537  1.93387e-05
      1.45585  1.87275e-05
      1.45634  1.82641e-05
      1.45682  1.88629e-05
      1.45731  1.92776e-05
      1.45779  1.94528e-05
      1.45828  1.96007e-05
      1.45877  1.96870e-05
      1.45925  1.95927e-05
      1.45974  1.96443e-05
      1.46023  1.90543e-05
      1.46071  1.78817e-05
      1.46120  1.75864e-05
      1.46169  1.75456e-05
      1.46217  1.97989e-05
      1.46266  1.88730e-05
      1.46315  1.78806e-05
      1.46364  2.01157e-05
      1.46412  2.00628e-05
      1.46461  1.91911e-05
      1.46510  1.89090e-05
      1.46559  1.98665e-05
      1.46608  2.03375e-05
      1.46657  1.94112e-05
      1.46705  1.94139e-05
      1.46754  2.03002e-05
      1.46803  1.87929e-05
      1.46852  2.06211e-05
      1.46901  2.03745e-05
      1.46950  2.02694e-05
      1.46999  1.88517e-05
      1.47048  2.01120e-05
      1.47097  2.06968e-05
      1.47146  2.00061e-05
      1.47195  2.04567e-05
      1.47244  2.10901e-05
      1.47293  2.12994e-05
      1.47342  2.11641e-05
      1.47391  1.99982e-05
      1.47441  2.12544e-05
      1.47490  2.16093e-05
      1.47539  2.02329e-05
      1.47588  2.09645e-05
      1.47637  2.14956e-05
      1.47687  2.15813e-05
      1.47736  2.02642e-05
      1.47785  2.14932e-05
      1.47834  2.06619e-05
      1.47884  2.20446e-05
      1.47933  2.19766e-05
      1.47982  2.01527e-05
      1.48032  2.16643e-05
      1.48081  2.14693e-05
      1.48130  2.19452e-05
      1.48180  2.18801e-05
      1.48229  2.22675e-05
      1.48278  2.23343e-05
      1.48328  2.14279e-05
      1.48377  2.28184e-05
      1.48427  2.24675e-05
      1.48476  2.24350e-05
      1.48526  2.24725e-05
      1.48575  2.27521e-05
      1.48625  2.22508e-05
      1.48674  2.27906e-05
      1.48724  2.27175e-05
      1.48774  2.23610e-05
      1.48823  1.97173e-05
      1.48873  2.01988e-05
      1.48922  2.32962e-05
      1.48972  2.34511e-05
      1.49021  2.33338e-05
      1.49071  2.20528e-05
      1.49121  2.30077e-05
      1.49171  2.37077e-05
      1.49220  2.37891e-05
      1.49270  2.34730e-05
      1.49320  2.34307e-05
      1.49370  2.38028e-05
      1.49419  2.37980e-05
      1.49469  2.41280e-05
      1.49519  2.39350e-05
      1.49569  2.42172e-05
      1.49619  2.41863e-05
      1.49669  2.44781e-05
      1.49718  2.45879e-05
      1.49768  2.44786e-05
      1.49818  2.45953e-05
      1.49868  2.47128e-05
      1.49918  2.46954e-05
      1.49968  2.47683e-05
      1.50017  2.47879e-05
      1.50068  2.26333e-05
      1.50118  2.47674e-05
      1.50168  2.47934e-05
      1.50218  2.41967e-05
      1.50268  2.02585e-05
      1.50319  2.31670e-05
      1.50369  2.46806e-05
      1.50419  2.31207e-05
      1.50469  2.32403e-05
      1.50519  2.26999e-05
      1.50569  2.42388e-05
      1.50619  2.53996e-05
      1.50670  2.50324e-05
      1.50720  2.59307e-05
      1.50770  2.57125e-05
      1.50820  2.55483e-05
      1.50871  2.54123e-05
      1.50921  2.63522e-05
      1.50971  2.62454e-05
      1.51022  2.61256e-05
      1.51072  2.63609e-05
      1.51122  2.63014e-05
      1.51173  2.62559e-05
      1.51223  2.64574e-05
      1.51273  2.66037e-05
      1.51324  2.51777e-05
      1.51374  2.53736e-05
      1.51425  2.68092e-05
      1.51475  2.60679e-05
      1.51526  2.54362e-05
      1.51576  2.72811e-05
      1.51627  2.70554e-05
      1.51677  2.66306e-05
      1.51728  2.64821e-05
      1.51778  2.67983e-05
      1.51829  2.78745e-05
      1.51880  2.68694e-05
      1.51930  2.76058e-05
      1.51981  2.77501e-05
      1.52032  2.77218e-05
      1.52082  2.81276e-05
      1.52133  2.80476e-05
      1.52184  2.82405e-05
      1.52234  2.78373e-05
      1.52285  2.81840e-05
      1.52336  2.85432e-05
      1.52386  2.77837e-05
      1.52437  2.82020e-05
      1.52488  2.83267e-05
      1.52539  2.86203e-05
      1.52590  2.86111e-05
      1.52641  2.84674e-05
      1.52692  2.58633e-05
      1.52742  2.89748e-05
      1.52793  2.89560e-05
      1.52844  2.60576e-05
      1.52895  2.80931e-05
      1.52946  2.92168e-05
      1.52997  2.85981e-05
      1.53048  2.97072e-05
      1.53099  2.96771e-05
      1.53150  2.96294e-05
      1.53201  2.92902e-05
      1.53252  2.94857e-05
      1.53303  2.79623e-05
      1.53355  2.98937e-05
      1.53406  2.87431e-05
      1.53457  3.00312e-05
      1.53508  3.01156e-05
      1.53559  3.03672e-05
      1.53610  3.07995e-05
      1.53662  3.04475e-05
      1.53713  2.96320e-05
      1.53764  2.72187e-05
      1.53815  2.95728e-05
      1.53866  2.82895e-05
      1.53918  2.93965e-05
      1.53969  2.90824e-05
      1.54020  3.04767e-05
      1.54072  2.85280e-05
      1.54123  2.72781e-05
      1.54174  3.14103e-05
      1.54226  2.95159e-05
      1.54277  2.88141e-05
      1.54329  2.76960e-05
      1.54380  3.03138e-05
      1.54432  3.16775e-05
      1.54483  3.19049e-05
      1.54535  3.20443e-05
      1.54586  3.20917e-05
      1.54638  3.06603e-05
      1.54689  3.15799e-05
      1.54741  3.10247e-05
      1.54792  3.20516e-05
      1.54844  3.24841e-05
      1.54896  3.21647e-05
      1.54947  3.28957e-05
      1.54999  3.15696e-05
      1.55051  3.23013e-05
      1.55102  3.00176e-05
      1.55154  3.24748e-05
      1.55206  3.26770e-05
      1.55257  3.34839e-05
      1.55309  3.33309e-05
      1.55361  3.29211e-05
      1.55413  3.06506e-05
      1.55464  3.04863e-05
      1.55516  3.37064e-05
      1.55568  3.36357e-05
      1.55620  3.03639e-05
      1.55672  3.30491e-05
      1.55724  3.08857e-05
      1.55776  3.16849e-05
      1.55827  3.38791e-05
      1.55879  3.43329e-05
      1.55931  3.43255e-05
      1.55983  3.31498e-05
      1.56035  3.43868e-05
      1.56087  3.42579e-05
      1.56140  3.47083e-05
      1.56192  3.41571e-05
      1.56244  3.44049e-05
      1.56296  3.19267e-05
      1.56348  3.45890e-05
      1.56400  3.52891e-05
      1.56452  3.52847e-05
      1.56504  3.51491e-05
      1.56556  3.14364e-05
      1.56609  3.51067e-05
      1.56661  3.54043e-05
      1.56713  3.58628e-05
      1.56765  3.61198e-05
      1.56817  3.58313e-05
      1.56870  3.58706e-05
      1.56922  3.60520e-05
      1.56974  3.58132e-05
      1.57027  3.51968e-05
      1.57079  3.65365e-05
      1.57131  3.64296e-05
      1.57184  3.51796e-05
      1.57236  3.29317e-05
      1.57289  3.45453e-05
      1.57341  3.46229e-05
      1.57394  3.69102e-05
      1.57446  3.51427e-05
      1.57498  3.59519e-05
      1.57551  3.46203e-05
      1.57604  3.36993e-05
      1.57656  3.63706e-05
      1.57709  3.31581e-05
      1.57761  3.65138e-05
      1.57814  3.39118e-05
      1.57866  3.77177e-05
      1.57919  3.82381e-05
      1.57971  3.83946e-05
      1.58024  3.80666e-05
      1.58077  3.84900e-05
      1.58130  3.88983e-05
      1.58182  3.83968e-05
      1.58235  3.78099e-05
      1.58288  3.81480e-05
      1.58340  3.76843e-05
      1.58393  3.80768e-05
      1.58446  3.86557e-05
      1.58499  3.81762e-05
      1.58552  3.96193e-05
      1.58604  3.95804e-05
      1.58657  3.91137e-05
      1.58710  3.88536e-05
      1.58763  3.98524e-05
      1.58816  3.96050e-05
      1.58869  3.79791e-05
      1.58922  3.59677e-05
      1.58975  3.45376e-05
      1.59028  3.76242e-05
      1.59081  4.02460e-05
      1.59134  3.80843e-05
      1.59187  3.82063e-05
      1.59240  4.04623e-05
      1.59293  4.06378e-05
      1.59346  4.06168e-05
      1.59399  4.08821e-05
      1.59453  4.11161e-05
      1.59506  4.12962e-05
      1.59559  4.15693e-05
      1.59612  4.12938e-05
      1.59665  4.12066e-05
      1.59719  4.03616e-05
      1.59772  4.17040e-05
      1.59825  4.16474e-05
      1.59878  4.20263e-05
      1.59932  4.21677e-05
      1.59985  4.22507e-05
      1.60038  4.23795e-05
      1.60092  4.24808e-05
      1.60145  4.24614e-05
      1.60198  4.22262e-05
      1.60252  4.26857e-05
      1.60305  4.17169e-05
      1.60359  4.30530e-05
      1.60412  3.82841e-05
      1.60465  4.23583e-05
      1.60519  4.35191e-05
      1.60572  3.93524e-05
      1.60626  4.19871e-05
      1.60680  3.89961e-05
      1.60733  4.10619e-05
      1.60787  3.98763e-05
      1.60840  4.37993e-05
      1.60894  4.41697e-05
      1.60947  4.42449e-05
      1.61001  4.39768e-05
      1.61055  4.38445e-05
      1.61108  4.43635e-05
      1.61162  4.48493e-05
      1.61216  4.45056e-05
      1.61270  4.28246e-05
      1.61323  4.47446e-05
      1.61377  4.41178e-05
      1.61431  4.21802e-05
      1.61485  4.47511e-05
      1.61539  4.01501e-05
      1.61592  3.90716e-05
      1.61646  4.26367e-05
      1.61700  4.53316e-05
      1.61754  4.59104e-05
      1.61808  4.58987e-05
      1.61862  4.57735e-05
      1.61916  4.44796e-05
      1.61970  3.97182e-05
      1.62024  3.92226e-05
      1.62078  4.14593e-05
      1.62132  4.27457e-05
      1.62186  4.50367e-05
      1.62240  4.38344e-05
      1.62294  4.36967e-05
      1.62348  4.30920e-05
      1.62402  4.72220e-05
      1.62456  4.45563e-05
      1.62511  4.40026e-05
      1.62565  4.39687e-05
      1.62619  4.40034e-05
      1.62673  4.54609e-05
      1.62727  4.64484e-05
      1.62782  4.66679e-05
      1.62836  4.80151e-05
      1.62890  4.84201e-05
      1.62944  4.83010e-05
      1.62999  4.72129e-05
      1.63053  4.69760e-05
      1.63107  4.83746e-05
      1.63162  4.46142e-05
      1.63216  4.84977e-05
      1.63271  4.88182e-05
      1.63325  4.90945e-05
      1.63380  4.91272e-05
      1.63434  4.70211e-05
      1.63488  4.73907e-05
      1.63543  4.54491e-05
      1.63597  4.51629e-05
      1.63652  4.93443e-05
      1.63707  4.38070e-05
      1.63761  4.96135e-05
      1.63816  4.98813e-05
      1.63870  4.81784e-05
      1.63925  5.00198e-05
      1.63980  4.91728e-05
      1.64034  4.94974e-05
      1.64089  5.04684e-05
      1.64144  4.94359e-05
      1.64198  5.04245e-05
      1.64253  5.11148e-05
      1.64308  5.10601e-05
      1.64363  5.10511e-05
      1.64417  4.98444e-05
      1.64472  4.55322e-05
      1.64527  4.58712e-05
      1.64582  4.76233e-05
      1.64637  5.12003e-05
      1.64692  5.18315e-05
      1.64746  4.86032e-05
      1.64801  5.01453e-05
      1.64856  5.21826e-05
      1.64911  5.08047e-05
      1.64966  5.21695e-05
      1.65021  5.18523e-05
      1.65076  5.24692e-05
      1.65131  5.25594e-05
      1.65186  5.27259e-05
      1.65241  5.24997e-05
      1.65296  4.66602e-05
      1.65351  5.29136e-05
      1.65407  4.71533e-05
      1.65462  5.24288e-05
      1.65517  5.28313e-05
      1.65572  5.36419e-05
      1.65627  5.38123e-05
      1.65682  5.37391e-05
      1.65738  5.37213e-05
      1.65793  5.39265e-05
      1.65848  4.99408e-05
      1.65903  5.36833e-05
      1.65959  5.43331e-05
      1.66014  5.41469e-05
      1.66069  5.36090e-05
      1.66125  4.99885e-05
      1.66180  5.45092e-05
      1.66236  5.44918e-05
      1.66291  5.46807e-05
      1.66346  5.46317e-05
      1.66402  5.40720e-05
      1.66457  5.51283e-05
      1.66513  5.46589e-05
      1.66568  5.02336e-05
      1.66624  5.22442e-05
      1.66679  5.23897e-05
      1.66735  5.53166e-05
      1.66791  5.53475e-05
      1.66846  5.58854e-05
      1.66902  5.45897e-05
      1.66957  5.58044e-05
      1.67013  5.59335e-05
      1.67069  5.27428e-05
      1.67124  5.26261e-05
      1.67180  5.24211e-05
      1.67236  4.86362e-05
      1.67292  5.55109e-05
      1.67347  5.18317e-05
      1.67403  5.67709e-05
      1.67459  5.66249e-05
      1.67515  5.27217e-05
      1.67571  4.81891e-05
      1.67626  5.62010e-05
      1.67682  5.42403e-05
      1.67738  5.72525e-05
      1.67794  5.76023e-05
      1.67850  5.79363e-05
      1.67906  5.78797e-05
      1.67962  5.78244e-05
      1.68018  5.77750e-05
      1.68074  5.80314e-05
      1.68130  5.81783e-05
      1.68186  5.84221e-05
      1.68242  5.83753e-05
      1.68298  5.85144e-05
      1.68354  5.86805e-05
      1.68410  5.77723e-05
      1.68466  5.87063e-05
      1.68523  5.88662e-05
      1.68579  5.89069e-05
      1.68635  5.91067e-05
      1.68691  5.63134e-05
      1.68747  5.46577e-05
      1.68804  5.84930e-05
      1.68860  5.62665e-05
      1.68916  5.45926e-05
      1.68973  5.66351e-05
      1.69029  5.52940e-05
      1.69085  5.12779e-05
      1.69142  5.64922e-05
      1.69198  5.97477e-05
      1.69254  6.00179e-05
      1.69311  6.04039e-05
      1.69367  6.05998e-05
      1.69424  6.05345e-05
      1.69480  6.04950e-05
      1.69537  5.93562e-05
      1.69593  6.04598e-05
      1.69650  6.08324e-05
      1.69706  6.08304e-05
      1.69763  6.04791e-05
      1.69819  6.10451e-05
      1.69876  6.12783e-05
      1.69933  6.10205e-05
      1.69989  6.07063e-05
      1.70046  6.13289e-05
      1.70103  5.94379e-05
      1.70159  6.13267e-05
      1.70216  6.16851e-05
      1.70273  6.14037e-05
      1.70329  6.19059e-05
      1.70386  6.18909e-05
      1.70443  6.19021e-05
      1.70500  6.18519e-05
      1.70557  5.67345e-05
      1.70614  6.25348e-05
      1.70670  6.17542e-05
      1.70727  5.65497e-05
      1.70784  6.06144e-05
      1.70841  6.17303e-05
      1.70898  6.23495e-05
      1.70955  6.23364e-05
      1.71012  5.62450e-05
      1.71069  5.31385e-05
      1.71126  4.90019e-05
      1.71183  5.97162e-05
      1.71240  6.01431e-05
      1.71297  6.22931e-05
      1.71354  6.31626e-05
      1.71412  6.28485e-05
      1.71469  6.30118e-05
      1.71526  6.37644e-05
      1.71583  6.30600e-05
      1.71640  6.37550e-05
      1.71697  6.25117e-05
      1.71755  6.03694e-05
      1.71812  6.25885e-05
      1.71869  6.21319e-05
      1.71926  6.26853e-05
      1.71984  6.30350e-05
      1.72041  6.45411e-05
      1.72099  6.01768e-05
      1.72156  6.40128e-05
      1.72213  6.41031e-05
      1.72271  6.34228e-05
      1.72328  5.91907e-05
      1.72386  6.43445e-05
      1.72443  6.07062e-05
      1.72500  6.02491e-05
      1.72558  6.45664e-05
      1.72616  6.50117e-05
      1.72673  6.39687e-05
      1.72731  6.40790e-05
      1.72788  6.56385e-05
      1.72846  6.49346e-05
      1.72903  6.43802e-05
      1.72961  6.53450e-05
      1.73019  6.51094e-05
      1.73076  6.62977e-05
      1.73134  6.23949e-05
      1.73192  5.85637e-05
      1.73249  6.30869e-05
      1.73307  6.39972e-05
      1.73365  6.40777e-05
      1.73423  6.07824e-05
      1.73481  6.38313e-05
      1.73538  6.25234e-05
      1.73596  6.59872e-05
      1.73654  6.64272e-05
      1.73712  6.57914e-05
      1.73770  6.76466e-05
      1.73828  6.27701e-05
      1.73886  6.58593e-05
      1.73944  6.68328e-05
      1.74002  6.69248e-05
      1.74060  6.47505e-05
      1.74118  6.65051e-05
      1.74176  6.22053e-05
      1.74234  6.68714e-05
      1.74292  6.26370e-05
      1.74350  6.46699e-05
      1.74408  6.75841e-05
      1.74466  6.72972e-05
      1.74524  6.72123e-05
      1.74582  6.80087e-05
      1.74641  6.79184e-05
      1.74699  6.73299e-05
      1.74757  6.73761e-05
      1.74816  6.72162e-05
      1.74874  6.95405e-05
      1.74932  6.74002e-05
      1.74990  6.59037e-05
      1.75049  6.43791e-05
      1.75107  6.80853e-05
      1.75165  6.84994e-05
      1.75224  6.83450e-05
      1.75282  6.63783e-05
      1.75341  6.58066e-05
      1.75399  6.53925e-05
      1.75457  6.53040e-05
      1.75516  6.60033e-05
      1.75574  6.75779e-05
      1.75633  6.79439e-05
      1.75692  6.80567e-05
      1.75750  6.97733e-05
      1.75809  6.85372e-05
      1.75867  6.83792e-05
      1.75926  6.47920e-05
      1.75985  6.71275e-05
      1.76043  6.70095e-05
      1.76102  6.64634e-05
      1.76161  6.76789e-05
      1.76219  6.59630e-05
      1.76278  6.62447e-05
      1.76337  6.93809e-05
      1.76396  7.05047e-05
      1.76454  6.87870e-05
      1.76513  6.98558e-05
      1.76572  6.98317e-05
      1.76631  6.85813e-05
      1.76690  6.84980e-05
      1.76749  7.03266e-05
      1.76808  6.84966e-05
      1.76867  6.53301e-05
      1.76926  7.00175e-05
      1.76985  7.26008e-05
      1.77043  7.02583e-05
      1.77103  7.01332e-05
      1.77162  6.92184e-05
      1.77220  6.93538e-05
      1.77280  6.95484e-05
      1.77339  7.08462e-05
      1.77398  7.27528e-05
      1.77457  7.09765e-05
      1.77516  6.92306e-05
      1.77575  7.09387e-05
      1.77635  7.00108e-05
      1.77694  6.87030e-05
      1.77753  6.77362e-05
      1.77812  6.85808e-05
      1.77872  6.90520e-05
      1.77931  7.10689e-05
      1.77990  7.08976e-05
      1.78050  7.28361e-05
      1.78109  6.96371e-05
      1.78168  6.90661e-05
      1.78227  6.91531e-05
      1.78287  6.52573e-05
      1.78346  6.87525e-05
      1.78406  7.32744e-05
      1.78465  7.24071e-05
      1.78525  6.71646e-05
      1.78584  6.87646e-05
      1.78644  7.02186e-05
      1.78703  6.85990e-05
      1.78763  7.16143e-05
      1.78823  7.15593e-05
      1.78882  7.23861e-05
      1.78942  7.38069e-05
      1.79001  7.40324e-05
      1.79061  7.07752e-05
      1.79121  7.13512e-05
      1.79180  7.29056e-05
      1.79240  7.40628e-05
      1.79300  7.34472e-05
      1.79360  7.15827e-05
      1.79420  7.28006e-05
      1.79479  7.20385e-05
      1.79539  7.32678e-05
      1.79599  7.33009e-05
      1.79659  7.12465e-05
      1.79719  7.49711e-05
      1.79779  7.44078e-05
      1.79838  7.51320e-05
      1.79898  7.23544e-05
      1.79958  7.16404e-05
      1.80018  7.45496e-05
      1.80078  7.10619e-05
      1.80138  7.07026e-05
      1.80198  7.18226e-05
      1.80259  6.77204e-05
      1.80319  6.94172e-05
      1.80379  7.19744e-05
      1.80439  7.18354e-05
      1.80499  7.12579e-05
      1.80559  7.07803e-05
      1.80620  7.48254e-05
      1.80680  7.52851e-05
      1.80740  7.27334e-05
      1.80800  7.48639e-05
      1.80860  7.38270e-05
      1.80921  7.69853e-05
      1.80981  7.65371e-05
      1.81041  7.48452e-05
      1.81102  7.22579e-05
      1.81162  7.40466e-05
      1.81222  7.42446e-05
      1.81283  7.44933e-05
      1.81343  7.29334e-05
      1.81404  7.56862e-05
      1.81464  7.73636e-05
      1.81525  7.54237e-05
      1.81585  7.58579e-05
      1.81646  7.80586e-05
      1.81706  7.46962e-05
      1.81767  7.56127e-05
      1.81827  7.69796e-05
      1.81888  7.44749e-05
      1.81949  7.46810e-05
      1.82009  7.33073e-05
      1.82070  7.60594e-05
      1.82131  7.45286e-05
      1.82191  7.17959e-05
      1.82252  7.42704e-05
      1.82313  7.93976e-05
      1.82374  8.05916e-05
      1.82434  8.02715e-05
      1.82495  7.64288e-05
      1.82556  7.63837e-05
      1.82617  7.32633e-05
      1.82678  7.57598e-05
      1.82739  7.35622e-05
      1.82800  7.41366e-05
      1.82861  7.17878e-05
      1.82921  7.74059e-05
      1.82982  7.85005e-05
      1.83043  7.67431e-05
      1.83104  7.82213e-05
      1.83165  7.99096e-05
      1.83227  7.54872e-05
      1.83288  7.83001e-05
      1.83349  7.96715e-05
      1.83410  7.95839e-05
      1.83471  7.91473e-05
      1.83532  7.87505e-05
      1.83593  7.80656e-05
      1.83654  7.71498e-05
      1.83716  8.09050e-05
      1.83777  7.65600e-05
      1.83838  8.08316e-05
      1.83900  7.97806e-05
      1.83961  7.73211e-05
      1.84022  7.66389e-05
      1.84083  7.87453e-05
      1.84145  8.22139e-05
      1.84206  7.55843e-05
      1.84267  7.60480e-05
      1.84329  7.74184e-05
      1.84390  7.58023e-05
      1.84452  7.86296e-05
      1.84513  8.09933e-05
      1.84575  7.79868e-05
      1.84636  7.96191e-05
      1.84698  6.78948e-05
      1.84759  7.70466e-05
      1.84821  7.71867e-05
      1.84883  7.85549e-05
      1.84944  7.84989e-05
      1.85006  8.04772e-05
      1.85068  8.10995e-05
      1.85129  7.89876e-05
      1.85191  7.94001e-05
      1.85253  7.97091e-05
      1.85315  7.52359e-05
      1.85376  8.03556e-05
      1.85438  8.27382e-05
      1.85500  7.95274e-05
      1.85562  8.09581e-05
      1.85624  7.50335e-05
      1.85685  7.58980e-05
      1.85747  7.92855e-05
      1.85809  7.67343e-05
      1.85871  7.87907e-05
      1.85933  7.91022e-05
      1.85995  7.98843e-05
      1.86057  7.74585e-05
      1.86119  7.93363e-05
      1.86181  8.02936e-05
      1.86243  8.18587e-05
      1.86305  8.01762e-05
      1.86367  8.11643e-05
      1.86430  8.13708e-05
      1.86492  8.20350e-05
      1.86554  8.15035e-05
      1.86616  8.23227e-05
      1.86678  8.32626e-05
      1.86741  8.48438e-05
      1.86803  7.96909e-05
      1.86865  8.47878e-05
      1.86927  8.53613e-05
      1.86990  8.37492e-05
      1.87052  8.49139e-05
      1.87114  8.00399e-05
      1.87177  8.40972e-05
      1.87239  8.44817e-05
      1.87302  7.55172e-05
      1.87364  8.13830e-05
      1.87426  8.23134e-05
      1.87489  8.30692e-05
      1.87551  8.40701e-05
      1.87614  8.55358e-05
      1.87676  8.24996e-05
      1.87739  8.21388e-05
      1.87802  8.24617e-05
      1.87864  8.03379e-05
      1.87927  8.38406e-05
      1.87989  8.47890e-05
      1.88052  8.71652e-05
      1.88115  8.45572e-05
      1.88177  8.46266e-05
      1.88240  8.75346e-05
      1.88303  8.90209e-05
      1.88366  8.71895e-05
      1.88428  8.54185e-05
      1.88491  7.91830e-05
      1.88554  8.56637e-05
      1.88617  8.00570e-05
      1.88680  8.33925e-05
      1.88743  8.92362e-05
      1.88806  8.77428e-05
      1.88869  8.35220e-05
      1.88931  8.79203e-05
      1.88994  8.61804e-05
      1.89057  8.60201e-05
      1.89120  8.58443e-05
      1.89183  8.39843e-05
      1.89247  8.38750e-05
      1.89310  8.39886e-05
      1.89373  8.80749e-05
      1.89436  8.79524e-05
      1.89499  8.58353e-05
      1.89562  9.13907e-05
      1.89626  8.66880e-05
      1.89689  9.02992e-05
      1.89752  8.76571e-05
      1.89815  8.67431e-05
      1.89878  8.79472e-05
      1.89942  8.70314e-05
      1.90005  9.17236e-05
      1.90068  9.02167e-05
      1.90132  8.71479e-05
      1.90195  9.22763e-05
      1.90259  9.02324e-05
      1.90322  8.81672e-05
      1.90385  8.90709e-05
      1.90449  8.91919e-05
      1.90512  8.39069e-05
      1.90576  8.71636e-05
      1.90639  8.82203e-05
      1.90703  8.89936e-05
      1.90767  8.96875e-05
      1.90830  9.08910e-05
      1.90894  8.77966e-05
      1.90957  8.92093e-05
      1.91021  8.99038e-05
      1.91085  8.65214e-05
      1.91148  8.76217e-05
      1.91212  9.08013e-05
      1.91276  9.26917e-05
      1.91339  9.27342e-05
      1.91403  9.40128e-05
      1.91467  9.08534e-05
      1.91531  9.27851e-05
      1.91595  8.92469e-05
      1.91659  8.91734e-05
      1.91723  9.20834e-05
      1.91786  9.29250e-05
      1.91850  9.25178e-05
      1.91914  9.40912e-05
      1.91978  9.13126e-05
      1.92042  9.28866e-05
      1.92106  9.24506e-05
      1.92170  9.41222e-05
      1.92234  9.30116e-05
      1.92298  9.31075e-05
      1.92363  9.32089e-05
      1.92427  9.24535e-05
      1.92491  9.37220e-05
      1.92555  9.32281e-05
      1.92619  9.29342e-05
      1.92683  9.15452e-05
      1.92747  9.64159e-05
      1.92812  9.69842e-05
      1.92876  9.34460e-05
      1.92940  9.22251e-05
      1.93005  9.20178e-05
      1.93069  8.91821e-05
      1.93133  7.02013e-05
      1.93198  8.59769e-05
      1.93262  9.21804e-05
      1.93327  9.28348e-05
      1.93391  9.07346e-05
      1.93456  9.31134e-05
      1.93520  9.45902e-05
      1.93585  9.51401e-05
      1.93649  9.51211e-05
      1.93714  9.72474e-05
      1.93778  9.71860e-05
      1.93843  9.44732e-05
      1.93907  9.48350e-05
      1.93972  9.34718e-05
      1.94037  9.48682e-05
      1.94101  9.54209e-05
      1.94166  9.74191e-05
      1.94231  9.73144e-05
      1.94295  9.54175e-05
      1.94360  9.29206e-05
      1.94425  9.63338e-05
      1.94490  8.94366e-05
      1.94555  7.44013e-05
      1.94619  7.91797e-05
      1.94684  9.28806e-05
      1.94749  9.51279e-05
      1.94814  9.34476e-05
      1.94879  9.52856e-05
      1.94944  9.65479e-05
      1.95009  9.75250e-05
      1.95074  8.55149e-05
      1.95139  8.06377e-05
      1.95204  9.46544e-05
      1.95269  9.68068e-05
      1.95334  9.64561e-05
      1.95399  9.84846e-05
      1.95465  9.88766e-05
      1.95530  9.57038e-05
      1.95595  9.89284e-05
      1.95660  9.51936e-05
      1.95725  0.000100706
      1.95791  9.95203e-05
      1.95856  0.000102624
      1.95921  0.000102845
      1.95986  9.76120e-05
      1.96052  9.75374e-05
      1.96117  9.68967e-05
      1.96182  9.63224e-05
      1.96248  0.000101194
      1.96313  9.82083e-05
      1.96379  9.41782e-05
      1.96444  9.90969e-05
      1.96510  0.000101197
      1.96575  0.000100411
      1.96641  0.000103319
      1.96706  0.000102201
      1.96772  9.90246e-05
      1.96837  0.000102869
      1.96903  9.98340e-05
      1.96969  0.000102111
      1.97034  0.000104203
      1.97100  9.93902e-05
      1.97166  0.000100940
      1.97231  0.000103113
      1.97297  9.89283e-05
      1.97363  0.000101077
      1.97429  0.000101141
      1.97494  0.000101376
      1.97560  9.51237e-05
      1.97626  9.39220e-05
      1.97692  9.80286e-05
      1.97758  8.73880e-05
      1.97824  6.88802e-05
      1.97890  8.99030e-05
      1.97956  9.67474e-05
      1.98022  9.72141e-05
      1.98088  9.87363e-05
      1.98154  0.000100386
      1.98220  9.82129e-05
      1.98286  0.000100280
      1.98352  0.000104391
      1.98418  0.000100822
      1.98484  0.000100841
      1.98550  9.45474e-05
      1.98617  8.94744e-05
      1.98683  8.10116e-05
      1.98749  0.000100702
      1.98815  0.000101459
      1.98882  0.000103769
      1.98948  0.000101540
      1.99014  9.80932e-05
      1.99081  0.000101925
      1.99147  0.000101067
      1.99213  9.36173e-05
      1.99280  0.000104802
      1.99346  9.97489e-05
      1.99413  9.26871e-05
      1.99479  0.000102131
      1.99545  9.88983e-05
      1.99612  0.000106488
      1.99679  9.80912e-05
      1.99745  9.87222e-05
      1.99812  0.000104443
      1.99878  0.000105608
      1.99945  0.000104410
      2.00009  0.000101351
      2.00078  0.000104953
      2.00145  0.000105340
      2.00212  0.000102904
      2.00278  0.000106071
      2.00345  0.000105180
      2.00412  0.000104387
      2.00479  0.000106358
      2.00546  0.000106350
      2.00612  0.000104989
      2.00679  0.000106550
      2.00746  0.000106200
      2.00813  0.000109360
      2.00880  0.000102379
      2.00947  0.000103992
      2.01014  0.000106222
      2.01081  0.000104586
      2.01148  0.000105590
      2.01215  0.000106170
      2.01282  0.000105489
      2.01349  0.000104943
      2.01416  0.000106981
      2.01483  0.000107840
      2.01551  0.000105747
      2.01618  0.000105965
      2.01685  0.000104585
      2.01752  0.000108262
      2.01819  0.000106077
      2.01887  0.000107526
      2.01954  0.000102456
      2.02021  0.000102239
      2.02089  0.000109154
      2.02156  0.000108541
      2.02223  0.000106936
      2.02291  0.000108670
      2.02358  0.000108565
      2.02426  0.000109179
      2.02493  0.000110543
      2.02561  0.000106009
      2.02628  0.000107269
      2.02696  0.000105919
      2.02763  0.000107898
      2.02831  0.000107304
      2.02898  0.000102188
      2.02966  0.000107388
      2.03034  0.000108065
      2.03102  0.000105409
      2.03169  0.000111861
      2.03237  0.000112381
      2.03305  0.000109803
      2.03372  0.000110133
      2.03440  0.000109663
      2.03508  0.000109766
      2.03576  0.000105384
      2.03644  0.000109910
      2.03712  0.000111227
      2.03779  0.000113314
      2.03847  0.000107490
      2.03915  0.000110702
      2.03983  0.000109932
      2.04051  0.000110100
      2.04119  0.000108614
      2.04187  0.000112967
      2.04255  0.000113221
      2.04324  0.000113990
      2.04392  0.000108651
      2.04460  0.000109357
      2.04528  0.000108844
      2.04596  0.000110422
      2.04664  0.000113402
      2.04733  0.000110288
      2.04801  0.000113948
      2.04869  0.000110136
      2.04937  0.000110081
      2.05006  0.000108653
      2.05074  0.000114547
      2.05142  0.000113170
      2.05211  0.000110883
      2.05279  0.000113457
      2.05348  0.000112966
      2.05416  0.000106680
      2.05484  0.000110992
      2.05553  0.000111792
      2.05622  0.000109747
      2.05690  0.000112901
      2.05759  0.000112145
      2.05827  0.000114716
      2.05896  0.000112951
      2.05964  0.000115118
      2.06033  0.000113329
      2.06102  0.000111416
      2.06171  0.000116477
      2.06239  0.000112225
      2.06308  0.000112398
      2.06377  0.000105792
      2.06445  0.000111036
      2.06514  0.000112059
      2.06583  0.000111220
      2.06652  0.000117938
      2.06721  0.000113976
      2.06790  0.000114206
      2.06859  0.000115728
      2.06928  0.000112795
      2.06997  0.000116343
      2.07066  0.000118271
      2.07135  0.000115701
      2.07204  0.000113845
      2.07273  0.000115359
      2.07342  0.000112877
      2.07411  0.000114900
      2.07480  0.000116357
      2.07549  0.000115794
      2.07618  0.000115949
      2.07688  0.000116603
      2.07757  0.000115322
      2.07826  0.000118344
      2.07896  0.000116193
      2.07965  0.000116555
      2.08034  0.000116338
      2.08103  0.000117038
      2.08173  0.000114948
      2.08242  0.000117156
      2.08312  0.000117255
      2.08381  0.000115956
      2.08451  0.000117260
      2.08520  0.000116139
      2.08589  0.000114765
      2.08659  0.000117304
      2.08729  0.000114560
      2.08798  0.000117970
      2.08868  0.000117060
      2.08937  0.000115806
      2.09007  0.000116385
      2.09077  0.000121084
      2.09146  0.000120479
      2.09216  0.000117603
      2.09286  0.000122090
      2.09356  0.000116527
      2.09425  0.000117110
      2.09495  0.000118571
      2.09565  0.000118804
      2.09635  0.000116450
      2.09705  0.000116741
      2.09775  0.000115840
      2.09845  0.000120608
      2.09914  0.000119725
      2.09984  0.000118572
      2.10054  0.000118761
      2.10124  0.000121290
      2.10194  0.000117612
      2.10265  0.000121270
      2.10335  0.000119830
      2.10405  0.000122623
      2.10475  0.000120957
      2.10545  0.000119242
      2.10615  0.000121366
      2.10685  0.000121946
      2.10756  0.000119638
      2.10826  0.000119910
      2.10896  0.000120124
      2.10967  0.000117563
      2.11037  0.000121658
      2.11107  0.000123972
      2.11178  0.000119243
      2.11248  0.000121022
      2.11318  0.000122478
      2.11389  0.000123143
      2.11459  0.000123968
      2.11530  0.000122467
      2.11600  0.000123908
      2.11671  0.000115706
      2.11741  0.000119623
      2.11812  0.000122679
      2.11883  0.000123944
      2.11953  0.000121398
      2.12024  0.000122440
      2.12094  0.000123102
      2.12165  0.000122900
      2.12236  0.000123444
      2.12307  0.000125198
      2.12378  0.000123887
      2.12448  0.000124453
      2.12519  0.000126565
      2.12590  0.000122616
      2.12661  0.000123941
      2.12732  0.000124944
      2.12803  0.000123544
      2.12874  0.000122974
      2.12944  0.000125272
      2.13015  0.000125784
      2.13086  0.000125206
      2.13157  0.000126802
      2.13229  0.000125037
      2.13300  0.000126814
      2.13371  0.000127551
      2.13442  0.000124358
      2.13513  0.000127398
      2.13584  0.000125248
      2.13655  0.000126619
      2.13727  0.000125608
      2.13798  0.000125591
      2.13869  0.000125190
      2.13940  0.000127209
      2.14012  0.000123645
      2.14083  0.000126557
      2.14154  0.000127141
      2.14226  0.000126217
      2.14297  0.000128071
      2.14369  0.000129898
      2.14440  0.000129195
      2.14512  0.000129729
      2.14583  0.000127751
      2.14654  0.000129462
      2.14726  0.000130317
      2.14798  0.000128816
      2.14869  0.000127901
      2.14941  0.000128399
      2.15012  0.000127355
      2.15084  0.000129324
      2.15156  0.000129786
      2.15228  0.000128350
      2.15299  0.000127958
      2.15371  0.000129028
      2.15443  0.000128202
      2.15515  0.000130907
      2.15587  0.000130279
      2.15658  0.000130478
      2.15730  0.000130636
      2.15802  0.000130030
      2.15874  0.000129951
      2.15946  0.000130351
      2.16018  0.000129748
      2.16090  0.000132129
      2.16162  0.000132430
      2.16234  0.000131504
      2.16306  0.000130211
      2.16378  0.000132302
      2.16451  0.000132551
      2.16523  0.000132806
      2.16595  0.000131395
      2.16667  0.000131944
      2.16739  0.000132414
      2.16812  0.000132549
      2.16884  0.000133847
      2.16956  0.000133436
      2.17028  0.000132539
      2.17101  0.000132756
      2.17173  0.000133092
      2.17246  0.000132549
      2.17318  0.000133792
      2.17390  0.000133498
      2.17463  0.000134278
      2.17535  0.000133301
      2.17608  0.000132477
      2.17680  0.000133744
      2.17753  0.000134408
      2.17826  0.000134393
      2.17898  0.000127525
      2.17971  0.000133471
      2.18043  0.000134095
      2.18116  0.000133249
      2.18189  0.000135224
      2.18261  0.000132981
      2.18334  0.000134176
      2.18407  0.000134640
      2.18480  0.000135769
      2.18553  0.000136211
      2.18625  0.000135367
      2.18698  0.000136445
      2.18771  0.000135129
      2.18844  0.000135048
      2.18917  0.000135428
      2.18990  0.000134723
      2.19063  0.000131734
      2.19136  0.000137040
      2.19209  0.000136682
      2.19282  0.000136177
      2.19355  0.000137585
      2.19428  0.000137127
      2.19502  0.000137923
      2.19575  0.000137358
      2.19648  0.000138426
      2.19721  0.000136066
      2.19794  0.000137198
      2.19868  0.000137025
      2.19941  0.000137518
      2.20014  0.000137395
      2.20088  0.000135675
      2.20161  0.000138686
      2.20234  0.000137928
      2.20308  0.000137429
      2.20381  0.000138490
      2.20455  0.000138792
      2.20528  0.000136952
      2.20602  0.000122932
      2.20675  0.000133901
      2.20749  0.000138208
      2.20822  0.000138567
      2.20896  0.000127251
      2.20970  0.000138361
      2.21043  0.000139552
      2.21117  0.000139450
      2.21191  0.000140189
      2.21264  0.000140238
      2.21338  0.000140026
      2.21412  0.000141260
      2.21486  0.000140591
      2.21560  0.000140588
      2.21633  0.000141371
      2.21707  0.000140594
      2.21781  0.000141355
      2.21855  0.000141979
      2.21929  0.000140990
      2.22003  0.000141187
      2.22077  0.000141502
      2.22151  0.000137221
      2.22225  0.000142312
      2.22299  0.000142260
      2.22373  0.000138193
      2.22447  0.000142079
      2.22522  0.000143274
      2.22596  0.000142228
      2.22670  0.000140444
      2.22744  0.000141595
      2.22818  0.000135708
      2.22893  0.000140242
      2.22967  0.000142423
      2.23041  0.000141275
      2.23116  0.000142826
      2.23190  0.000141553
      2.23265  0.000143207
      2.23339  0.000142680
      2.23413  0.000142293
      2.23488  0.000142855
      2.23562  0.000143742
      2.23637  0.000143390
      2.23711  0.000144889
      2.23786  0.000144352
      2.23860  0.000143640
      2.23935  0.000144377
      2.24010  0.000143363
      2.24084  0.000145133
      2.24159  0.000144148
      2.24234  0.000145329
      2.24309  0.000144808
      2.24383  0.000145308
      2.24458  0.000145152
      2.24533  0.000144668
      2.24608  0.000145401
      2.24683  0.000145916
      2.24758  0.000145650
      2.24832  0.000145290
      2.24907  0.000146737
      2.24982  0.000146362
      2.25057  0.000146009
      2.25132  0.000147082
      2.25207  0.000146351
      2.25283  0.000146881
      2.25358  0.000147089
      2.25433  0.000146510
      2.25508  0.000145517
      2.25583  0.000147386
      2.25658  0.000148050
      2.25733  0.000147152
      2.25809  0.000146818
      2.25884  0.000147782
      2.25959  0.000147368
      2.26035  0.000147259
      2.26110  0.000145061
      2.26185  0.000145865
      2.26261  0.000145012
      2.26336  0.000142848
      2.26412  0.000146948
      2.26487  0.000147317
      2.26562  0.000142208
      2.26638  0.000147537
      2.26714  0.000148778
      2.26789  0.000148402
      2.26865  0.000147713
      2.26940  0.000148818
      2.27016  0.000146547
      2.27092  0.000148551
      2.27167  0.000148048
      2.27243  0.000148840
      2.27319  0.000149655
      2.27395  0.000149424
      2.27470  0.000149127
      2.27546  0.000150581
      2.27622  0.000150192
      2.27698  0.000149758
      2.27774  0.000150274
      2.27850  0.000149897
      2.27926  0.000149654
      2.28002  0.000150242
      2.28078  0.000148986
      2.28154  0.000148342
      2.28230  0.000149271
      2.28306  0.000146358
      2.28382  0.000150185
      2.28458  0.000149461
      2.28534  0.000150681
      2.28610  0.000151089
      2.28687  0.000151753
      2.28763  0.000151502
      2.28839  0.000151823
      2.28915  0.000151056
      2.28992  0.000152505
      2.29068  0.000152087
      2.29144  0.000151202
      2.29221  0.000152082
      2.29297  0.000151711
      2.29374  0.000133799
      2.29450  0.000141445
      2.29527  0.000143513
      2.29603  0.000144192
      2.29680  0.000143461
      2.29756  0.000144370
      2.29833  0.000148079
      2.29909  0.000147579
      2.29986  0.000149709
      2.30063  0.000148965
      2.30139  0.000148265
      2.30216  0.000150322
      2.30293  0.000149180
      2.30370  0.000148593
      2.30446  0.000149836
      2.30523  0.000151346
      2.30600  0.000149672
      2.30677  0.000149578
      2.30754  0.000150083
      2.30831  0.000152994
      2.30908  0.000149841
      2.30985  0.000149775
      2.31062  0.000151556
      2.31139  0.000149702
      2.31216  0.000150108
      2.31293  0.000153108
      2.31370  0.000150226
      2.31447  0.000151710
      2.31524  0.000149966
      2.31601  0.000151091
      2.31678  0.000153019
      2.31756  0.000150591
      2.31833  0.000153399
      2.31910  0.000152460
      2.31988  0.000153911
      2.32065  0.000149278
      2.32142  0.000153698
      2.32220  0.000151731
      2.32297  0.000132387
      2.32374  0.000140596
      2.32452  0.000145623
      2.32529  0.000145993
      2.32607  0.000145081
      2.32685  0.000150351
      2.32762  0.000150114
      2.32840  0.000146486
      2.32917  0.000149116
      2.32995  0.000148737
      2.33073  0.000148557
      2.33150  0.000151773
      2.33228  0.000150346
      2.33306  0.000151074
      2.33383  0.000150947
      2.33461  0.000149098
      2.33539  0.000143924
      2.33617  0.000151737
      2.33695  0.000149908
      2.33773  0.000149515
      2.33851  0.000142572
      2.33928  0.000149336
      2.34006  0.000150866
      2.34084  0.000153813
      2.34162  0.000150963
      2.34241  0.000153929
      2.34319  0.000154673
      2.34397  0.000151820
      2.34475  0.000149579
      2.34553  0.000151357
      2.34631  0.000156523
      2.34709  0.000152265
      2.34788  0.000152350
      2.34866  0.000156318
      2.34944  0.000151221
      2.35023  0.000155812
      2.35101  0.000150768
      2.35179  0.000153734
      2.35258  0.000134982
      2.35336  0.000143678
      2.35415  0.000142692
      2.35493  0.000150330
      2.35571  0.000148119
      2.35650  0.000149462
      2.35729  0.000151013
      2.35807  0.000149110
      2.35886  0.000149139
      2.35964  0.000150807
      2.36043  0.000151055
      2.36122  0.000150691
      2.36200  0.000155231
      2.36279  0.000149288
      2.36358  0.000152758
      2.36437  0.000154164
      2.36516  0.000151863
      2.36594  0.000156812
      2.36673  0.000153264
      2.36752  0.000149630
      2.36831  0.000155330
      2.36910  0.000152255
      2.36989  0.000153100
      2.37068  0.000155914
      2.37147  0.000154337
      2.37226  0.000153542
      2.37305  0.000156114
      2.37384  0.000154614
      2.37463  0.000155561
      2.37543  0.000152275
      2.37622  0.000155307
      2.37701  0.000154930
      2.37780  0.000156618
      2.37859  0.000154571
      2.37939  0.000152794
      2.38018  0.000157825
      2.38097  0.000151136
      2.38177  0.000155512
      2.38256  0.000150498
      2.38336  0.000137895
      2.38415  0.000145612
      2.38494  0.000148821
      2.38574  0.000149429
      2.38653  0.000148126
      2.38733  0.000148803
      2.38812  0.000148344
      2.38892  0.000151975
      2.38972  0.000152050
      2.39052  0.000153517
      2.39131  0.000150606
      2.39211  0.000150484
      2.39291  0.000150465
      2.39370  0.000155543
      2.39450  0.000154742
      2.39530  0.000152529
      2.39610  0.000152525
      2.39690  0.000151405
      2.39770  0.000151583
      2.39849  0.000155369
      2.39929  0.000151369
      2.40009  0.000151606
      2.40089  0.000152747
      2.40169  0.000155205
      2.40249  0.000148608
      2.40330  0.000156458
      2.40410  0.000149855
      2.40490  0.000152489
      2.40570  0.000150680
      2.40650  0.000154344
      2.40730  0.000151107
      2.40811  0.000148043
      2.40891  0.000150535
      2.40971  0.000152687
      2.41052  0.000149450
      2.41132  0.000153284
      2.41212  0.000154247
      2.41293  0.000149507
      2.41373  0.000149176
      2.41454  0.000139371
      2.41534  0.000152246
      2.41615  0.000147073
      2.41695  0.000144710
      2.41776  0.000148145
      2.41856  0.000155540
      2.41937  0.000146976
      2.42017  0.000152003
      2.42098  0.000153458
      2.42179  0.000145533
      2.42260  0.000149024
      2.42340  0.000146715
      2.42421  0.000157067
      2.42502  0.000151190
      2.42583  0.000148037
      2.42664  0.000144869
      2.42745  0.000153921
      2.42825  0.000144795
      2.42906  0.000151215
      2.42987  0.000149398
      2.43068  0.000154421
      2.43149  0.000144680
      2.43230  0.000154106
      2.43312  0.000150921
      2.43393  0.000143798
      2.43474  0.000150493
      2.43555  0.000153178
      2.43636  0.000150170
      2.43717  0.000140091
      2.43798  0.000147392
      2.43880  0.000156569
      2.43961  0.000155330
      2.44042  0.000147875
      2.44124  0.000148289
      2.44205  0.000151253
      2.44287  0.000146705
      2.44368  0.000147415
      2.44449  0.000142185
      2.44531  0.000153739
      2.44612  0.000145837
      2.44694  0.000151569
      2.44775  0.000140901
      2.44857  0.000146325
      2.44939  0.000147060
      2.45020  0.000146931
      2.45102  0.000151442
      2.45184  0.000143905
      2.45265  0.000144155
      2.45347  0.000146944
      2.45429  0.000136020
      2.45511  0.000144682
      2.45593  0.000148384
      2.45674  0.000150774
      2.45756  0.000150403
      2.45838  0.000152657
      2.45920  0.000149630
      2.46002  0.000145748
      2.46084  0.000134441
      2.46166  0.000137606
      2.46248  0.000154669
      2.46330  0.000148878
      2.46412  0.000154235
      2.46495  0.000149363
      2.46577  0.000145654
      2.46659  0.000148680
      2.46741  0.000139523
      2.46823  0.000142618
      2.46906  0.000153041
      2.46988  0.000146439
      2.47070  0.000148945
      2.47153  0.000149206
      2.47235  0.000146281
      2.47317  0.000152620
      2.47400  0.000136486
      2.47483  0.000138639
      2.47565  0.000144075
      2.47647  0.000147065
      2.47730  0.000150891
      2.47813  0.000153288
      2.47895  0.000140381
      2.47978  0.000142865
      2.48060  0.000143497
      2.48143  0.000137502
      2.48226  0.000136094
      2.48309  0.000146534
      2.48391  0.000155749
      2.48474  0.000139538
      2.48557  0.000133472
      2.48640  0.000128303
      2.48723  0.000127488
      2.48806  0.000129363
      2.48889  0.000132503
      2.48972  0.000126691
      2.49055  0.000128696
      2.49138  0.000129467
      2.49221  0.000131150
      2.49304  0.000131186
      2.49387  0.000135264
      2.49470  0.000131144
      2.49553  0.000133841
      2.49636  0.000133581
      2.49719  0.000136586
      2.49803  0.000125075
      2.49886  0.000132903
      2.49966  0.000133939
      2.50052  0.000131093
      2.50136  0.000135519
      2.50219  0.000135437
      2.50302  0.000135405
      2.50386  0.000130523
      2.50470  0.000132301
      2.50553  0.000130524
      2.50636  0.000124534
      2.50720  0.000136283
      2.50804  0.000134552
      2.50887  0.000139251
      2.50971  0.000138358
      2.51055  0.000135848
      2.51139  0.000135626
      2.51222  0.000130039
      2.51306  0.000133905
      2.51390  0.000134355
      2.51474  0.000132186
      2.51557  0.000127762
      2.51641  0.000136118
      2.51725  0.000142451
      2.51809  0.000137905
      2.51892  0.000140668
      2.51976  0.000130350
      2.52061  0.000131880
      2.52145  0.000141904
      2.52229  0.000138169
      2.52312  0.000138295
      2.52397  0.000129970
      2.52481  0.000126702
      2.52565  0.000128381
      2.52649  0.000131407
      2.52734  0.000132842
      2.52818  0.000128949
      2.52902  0.000130991
      2.52986  0.000139754
      2.53071  0.000142414
      2.53155  0.000130757
      2.53239  0.000143906
      2.53324  0.000130850
      2.53408  0.000139853
      2.53493  0.000135769
      2.53577  0.000133166
      2.53662  0.000133350
      2.53746  0.000132597
      2.53831  0.000142989
      2.53916  0.000131179
      2.54001  0.000139448
      2.54085  0.000135132
      2.54169  0.000140382
      2.54254  0.000137141
      2.54339  0.000132432
      2.54424  0.000137075
      2.54509  0.000145958
      2.54593  0.000139003
      2.54678  0.000133658
      2.54763  0.000144294
      2.54848  0.000138406
      2.54933  0.000138335
      2.55018  0.000139351
      2.55103  0.000137781
      2.55188  0.000139084
      2.55273  0.000138454
      2.55358  0.000142692
      2.55443  0.000141549
      2.55528  0.000139096
      2.55614  0.000139616
      2.55699  0.000141405
      2.55784  0.000142450
      2.55869  0.000145381
      2.55954  0.000142588
      2.56040  0.000136569
      2.56126  0.000135620
      2.56211  0.000145985
      2.56296  0.000136042
      2.56382  0.000143518
      2.56467  0.000131859
      2.56552  0.000146465
      2.56638  0.000139528
      2.56724  0.000143008
      2.56809  0.000145391
      2.56895  0.000138988
      2.56981  0.000134590
      2.57066  0.000150171
      2.57152  0.000154907
      2.57237  0.000145597
      2.57323  0.000141595
      2.57409  0.000144589
      2.57495  0.000141503
      2.57581  0.000137260
      2.57666  0.000138516
      2.57752  0.000137661
      2.57839  0.000141070
      2.57924  0.000143420
      2.58010  0.000148800
      2.58096  0.000147528
      2.58183  0.000140891
      2.58269  0.000141717
      2.58355  0.000143100
      2.58441  0.000150027
      2.58526  0.000147886
      2.58612  0.000158143
      2.58699  0.000145959
      2.58785  0.000149250
      2.58871  0.000144373
      2.58957  0.000142547
      2.59044  0.000150632
      2.59130  0.000151709
      2.59217  0.000151542
      2.59304  0.000142214
      2.59390  0.000153870
      2.59476  0.000142385
      2.59562  0.000148786
      2.59649  0.000153846
      2.59736  0.000147020
      2.59822  0.000143467
      2.59909  0.000147768
      2.59996  0.000157121
      2.60082  0.000153712
      2.60169  0.000150857
      2.60256  0.000158408
      2.60342  0.000146694
      2.60429  0.000148216
      2.60516  0.000152656
      2.60603  0.000148347
      2.60690  0.000150816
      2.60777  0.000147078
      2.60864  0.000137007
      2.60951  0.000149661
      2.61037  0.000156019
      2.61124  0.000160674
      2.61212  0.000158677
      2.61299  0.000150130
      2.61386  0.000158065
      2.61473  0.000151365
      2.61560  0.000158394
      2.61647  0.000154460
      2.61734  0.000152375
      2.61822  0.000147046
      2.61909  0.000142948
      2.61996  0.000142452
      2.62083  0.000147663
      2.62171  0.000141043
      2.62258  0.000143333
      2.62346  0.000149860
      2.62433  0.000145624
      2.62521  0.000143556
      2.62608  0.000149186
      2.62696  0.000147460
      2.62783  0.000150962
      2.62871  0.000152314
      2.62958  0.000151454
      2.63046  0.000142182
      2.63134  0.000151947
      2.63222  0.000150454
      2.63309  0.000152551
      2.63397  0.000146666
      2.63485  0.000146785
      2.63573  0.000149590
      2.63661  0.000153048
      2.63748  0.000151179
      2.63836  0.000144711
      2.63924  0.000150981
      2.64012  0.000145302
      2.64101  0.000146226
      2.64188  0.000141505
      2.64276  0.000151791
      2.64364  0.000152590
      2.64452  0.000155137
      2.64541  0.000148070
      2.64629  0.000150061
      2.64717  0.000153941
      2.64805  0.000151166
      2.64894  0.000151346
      2.64982  0.000153591
      2.65070  0.000152717
      2.65159  0.000140319
      2.65247  0.000141269
      2.65335  0.000156152
      2.65424  0.000150274
      2.65512  0.000142645
      2.65601  0.000152910
      2.65689  0.000138275
      2.65777  0.000153847
      2.65866  0.000153293
      2.65955  0.000153921
      2.66044  0.000148256
      2.66132  0.000144124
      2.66221  0.000154279
      2.66310  0.000158498
      2.66399  0.000153976
      2.66487  0.000145856
      2.66576  0.000155198
      2.66665  0.000154221
      2.66754  0.000151589
      2.66842  0.000155818
      2.66932  0.000155402
      2.67021  0.000148417
      2.67110  0.000144008
      2.67199  0.000163109
      2.67288  0.000158402
      2.67377  0.000157292
      2.67466  0.000156446
      2.67555  0.000147481
      2.67644  0.000150713
      2.67734  0.000141729
      2.67823  0.000155656
      2.67912  0.000154443
      2.68002  0.000152480
      2.68091  0.000159203
      2.68181  0.000143437
      2.68270  0.000156180
      2.68359  0.000155191
      2.68449  0.000151875
      2.68538  0.000155668
      2.68628  0.000149453
      2.68717  0.000158353
      2.68807  0.000153993
      2.68896  0.000161159
      2.68986  0.000155480
      2.69076  0.000151898
      2.69166  0.000155740
      2.69255  0.000155597
      2.69344  0.000142965
      2.69434  0.000148907
      2.69524  0.000147513
      2.69614  0.000140069
      2.69704  0.000153255
      2.69794  0.000151894
      2.69884  0.000148616
      2.69974  0.000156222
      2.70064  0.000160229
      2.70154  0.000142246
      2.70244  0.000148129
      2.70334  0.000142237
      2.70424  0.000150082
      2.70514  0.000142658
      2.70604  0.000150427
      2.70694  0.000153966
      2.70785  0.000155293
      2.70876  0.000151928
      2.70966  0.000156265
      2.71056  0.000152607
      2.71146  0.000146724
      2.71237  0.000144513
      2.71327  0.000153600
      2.71417  0.000149256
      2.71508  0.000148051
      2.71598  0.000149053
      2.71689  0.000154076
      2.71779  0.000137210
      2.71870  0.000151890
      2.71961  0.000157324
      2.72051  0.000147920
      2.72142  0.000157994
      2.72232  0.000148358
      2.72324  0.000148328
      2.72414  0.000144593
      2.72505  0.000151450
      2.72596  0.000141738
      2.72687  0.000153966
      2.72777  0.000151135
      2.72869  0.000142125
      2.72959  0.000140401
      2.73050  0.000142566
      2.73141  0.000155717
      2.73232  0.000153936
      2.73324  0.000149465
      2.73415  0.000157838
      2.73506  0.000145216
      2.73597  0.000136242
      2.73689  0.000140660
      2.73780  0.000150611
      2.73871  0.000137769
      2.73962  0.000149006
      2.74054  0.000135148
      2.74145  0.000149428
      2.74236  0.000152086
      2.74327  0.000155276
      2.74419  0.000148688
      2.74510  0.000150029
      2.74602  0.000150748
      2.74694  0.000154674
      2.74785  0.000144766
      2.74876  0.000153477
      2.74968  0.000147469
      2.75060  0.000142423
      2.75151  0.000150774
      2.75243  0.000150597
      2.75335  0.000155546
      2.75427  0.000150145
      2.75519  0.000145707
      2.75611  0.000144458
      2.75703  0.000162510
      2.75794  0.000147516
      2.75886  0.000160704
      2.75978  0.000156494
      2.76070  0.000158535
      2.76162  0.000153635
      2.76254  0.000156678
      2.76346  0.000162381
      2.76438  0.000146635
      2.76531  0.000152508
      2.76623  0.000145985
      2.76715  0.000146453
      2.76807  0.000144748
      2.76899  0.000155688
      2.76992  0.000145288
      2.77084  0.000148565
      2.77177  0.000151223
      2.77269  0.000157151
      2.77361  0.000150088
      2.77453  0.000163926
      2.77546  0.000152455
      2.77638  0.000149941
      2.77731  0.000155357
      2.77824  0.000144810
      2.77917  0.000146297
      2.78009  0.000150323
      2.78102  0.000151243
      2.78194  0.000148697
      2.78287  0.000150949
      2.78380  0.000153330
      2.78473  0.000147254
      2.78566  0.000141970
      2.78658  0.000134328
      2.78751  0.000148854
      2.78844  0.000141064
      2.78937  0.000142946
      2.79030  0.000145076
      2.79123  0.000138007
      2.79216  0.000135553
      2.79309  0.000144866
      2.79402  0.000145947
      2.79496  0.000147705
      2.79589  0.000142598
      2.79682  0.000142958
      2.79775  0.000140043
      2.79868  0.000143283
      2.79961  0.000149014
      2.80055  0.000138775
      2.80148  0.000136400
      2.80241  0.000124939
      2.80335  0.000135515
      2.80429  0.000129189
      2.80522  0.000123835
      2.80615  0.000136313
      2.80709  0.000140160
      2.80802  0.000135646
      2.80896  0.000132007
      2.80990  0.000138026
      2.81084  0.000135765
      2.81177  0.000131937
      2.81271  0.000135621
      2.81365  0.000128096
      2.81459  0.000135888
      2.81552  0.000137336
      2.81646  0.000137009
      2.81740  0.000126770
      2.81834  0.000128010
      2.81927  0.000119795
      2.82022  0.000123293
      2.82116  0.000125883
      2.82210  0.000126061
      2.82304  0.000126678
      2.82398  0.000126762
      2.82492  0.000130886
      2.82586  0.000124724
      2.82681  0.000121325
      2.82775  0.000124208
      2.82869  0.000128025
      2.82963  0.000128445
      2.83057  0.000121449
      2.83152  0.000125347
      2.83246  0.000129066
      2.83341  0.000121650
      2.83435  0.000120670
      2.83529  0.000114495
      2.83624  0.000114604
      2.83719  0.000117382
      2.83813  0.000113223
      2.83908  0.000121136
      2.84002  0.000122927
      2.84097  0.000114856
      2.84192  0.000118941
      2.84287  0.000114227
      2.84382  0.000111965
      2.84476  0.000115483
      2.84571  0.000113926
      2.84666  0.000116940
      2.84761  0.000115034
      2.84856  0.000116746
      2.84951  0.000104523
      2.85046  0.000102822
      2.85141  0.000110614
      2.85236  0.000107118
      2.85331  0.000102919
      2.85426  0.000102556
      2.85521  0.000100204
      2.85616  0.000101863
      2.85712  0.000101306
      2.85807  0.000110072
      2.85902  0.000111549
      2.85997  0.000107740
      2.86092  0.000105427
      2.86188  9.94863e-05
      2.86283  0.000106172
      2.86379  0.000102033
      2.86474  9.96538e-05
      2.86569  9.88312e-05
      2.86665  9.79609e-05
      2.86761  9.56938e-05
      2.86856  9.54648e-05
      2.86952  9.10965e-05
      2.87047  9.47758e-05
      2.87143  8.87786e-05
      2.87239  8.85810e-05
      2.87335  8.62585e-05
      2.87431  8.94842e-05
      2.87526  9.40720e-05
      2.87622  9.66906e-05
      2.87718  9.45686e-05
      2.87814  8.73955e-05
      2.87910  9.39524e-05
      2.88006  8.96262e-05
      2.88102  8.67077e-05
      2.88197  9.09127e-05
      2.88294  8.43638e-05
      2.88390  8.50764e-05
      2.88486  8.73325e-05
      2.88582  7.58063e-05
      2.88679  8.34091e-05
      2.88775  8.33192e-05
      2.88871  7.74364e-05
      2.88967  7.50878e-05
      2.89064  7.64991e-05
      2.89160  7.58801e-05
      2.89256  7.84458e-05
      2.89352  7.83893e-05
      2.89449  8.37831e-05
      2.89546  7.77933e-05
      2.89643  7.85050e-05
      2.89739  8.01724e-05
      2.89836  7.72174e-05
      2.89932  6.86283e-05
      2.90029  7.30873e-05
      2.90125  6.96544e-05
      2.90222  7.07477e-05
      2.90319  7.44264e-05
      2.90416  6.74832e-05
      2.90512  7.22007e-05
      2.90609  7.17308e-05
      2.90706  6.78153e-05
      2.90803  6.21608e-05
      2.90900  6.33915e-05
      2.90997  6.24000e-05
      2.91094  6.61560e-05
      2.91191  7.00547e-05
      2.91288  6.94041e-05
      2.91385  6.85276e-05
      2.91482  6.85451e-05
      2.91579  6.66019e-05
      2.91677  6.31103e-05
      2.91774  6.54600e-05
      2.91871  6.46556e-05
      2.91968  6.27609e-05
      2.92066  6.15480e-05
      2.92163  6.01745e-05
      2.92261  5.73005e-05
      2.92358  5.92783e-05
      2.92456  5.79540e-05
      2.92553  5.96468e-05
      2.92651  5.97037e-05
      2.92748  5.51016e-05
      2.92846  5.61633e-05
      2.92943  5.02556e-05
      2.93041  5.86602e-05
      2.93138  5.97916e-05
      2.93236  5.75033e-05
      2.93334  5.72576e-05
      2.93432  5.15505e-05
      2.93529  5.61728e-05
      2.93627  5.49352e-05
      2.93725  5.53417e-05
      2.93823  5.32579e-05
      2.93921  5.50569e-05
      2.94019  5.13235e-05
      2.94117  5.08270e-05
      2.94215  5.19337e-05
      2.94313  5.25723e-05
      2.94411  4.95252e-05
      2.94509  4.87315e-05
      2.94607  5.18203e-05
      2.94706  4.60045e-05
      2.94804  4.96170e-05
      2.94902  4.64815e-05
      2.95001  5.17369e-05
      2.95099  5.01711e-05
      2.95197  5.14933e-05
      2.95296  5.14994e-05
      2.95394  4.82455e-05
      2.95492  4.86314e-05
      2.95591  4.66386e-05
      2.95690  4.98457e-05
      2.95788  5.19466e-05
      2.95886  4.89442e-05
      2.95985  4.74405e-05
      2.96084  4.54781e-05
      2.96182  4.87778e-05
      2.96281  4.73526e-05
      2.96380  4.61715e-05
      2.96479  5.00779e-05
      2.96578  4.82672e-05
      2.96676  4.52270e-05
      2.96775  4.98023e-05
      2.96874  4.34842e-05
      2.96974  4.52365e-05
      2.97072  4.58749e-05
      2.97171  4.56614e-05
      2.97271  4.69424e-05
      2.97370  4.96584e-05
      2.97469  4.66379e-05
      2.97567  5.01603e-05
      2.97667  4.71095e-05
      2.97766  5.02200e-05
      2.97866  4.62109e-05
      2.97965  4.63374e-05
      2.98064  4.87148e-05
      2.98164  4.53725e-05
      2.98263  4.68538e-05
      2.98362  4.49091e-05
      2.98462  4.76128e-05
      2.98561  4.68849e-05
      2.98661  4.47936e-05
      2.98761  4.31416e-05
      2.98860  4.27542e-05
      2.98959  4.09877e-05
      2.99059  4.40831e-05
      2.99159  4.49984e-05
      2.99258  4.61476e-05
      2.99358  4.67057e-05
      2.99458  4.72454e-05
      2.99558  4.52595e-05
      2.99658  4.48273e-05
      2.99758  4.59478e-05
      2.99858  4.42704e-05
      2.99958  4.39896e-05
      3.00058  4.31138e-05
      3.00157  4.39059e-05
      3.00258  4.50629e-05
      3.00358  4.17047e-05
      3.00458  4.26873e-05
      3.00558  4.43116e-05
      3.00658  4.32188e-05
      3.00758  3.92663e-05
      3.00858  3.89706e-05
      3.00958  3.91083e-05
      3.01059  4.15778e-05
      3.01160  4.24541e-05
      3.01260  4.27806e-05
      3.01360  4.32940e-05
      3.01461  4.60095e-05
      3.01561  4.37985e-05
      3.01662  4.49174e-05
      3.01762  4.32261e-05
      3.01863  4.38726e-05
      3.01963  4.32715e-05
      3.02064  4.22707e-05
      3.02164  4.21571e-05
      3.02266  3.94569e-05
      3.02367  4.13683e-05
      3.02467  4.25223e-05
      3.02568  4.11400e-05
      3.02668  3.83444e-05
      3.02770  4.33289e-05
      3.02871  4.00927e-05
      3.02971  3.99514e-05
      3.03073  4.10612e-05
      3.03174  4.05648e-05
      3.03274  4.43294e-05
      3.03376  4.22466e-05
      3.03477  4.23460e-05
      3.03578  4.12740e-05
      3.03679  4.15905e-05
      3.03781  4.39054e-05
      3.03882  4.12883e-05
      3.03983  4.30035e-05
      3.04084  4.22651e-05
      3.04186  3.90878e-05
      3.04287  3.97932e-05
      3.04388  4.09511e-05
      3.04490  3.86112e-05
      3.04591  4.06015e-05
      3.04693  4.28162e-05
      3.04795  3.90177e-05
      3.04897  3.82250e-05
      3.04998  3.89215e-05
      3.05099  3.90746e-05
      3.05201  4.18116e-05
      3.05303  3.95695e-05
      3.05405  4.28517e-05
      3.05506  4.33558e-05
      3.05608  4.47286e-05
      3.05710  4.34108e-05
      3.05812  4.21542e-05
      3.05914  4.06791e-05
      3.06016  4.25455e-05
      3.06118  4.35514e-05
      3.06220  4.27130e-05
      3.06322  4.50755e-05
      3.06424  4.06961e-05
      3.06526  3.87298e-05
      3.06629  4.14380e-05
      3.06731  4.36839e-05
      3.06833  4.26891e-05
      3.06935  4.16817e-05
      3.07037  4.13514e-05
      3.07140  4.07237e-05
      3.07243  4.13766e-05
      3.07345  3.98502e-05
      3.07447  4.20420e-05
      3.07550  4.25480e-05
      3.07652  4.44828e-05
      3.07755  4.38504e-05
      3.07858  4.26510e-05
      3.07960  4.48039e-05
      3.08062  4.37893e-05
      3.08165  4.56695e-05
      3.08268  4.29609e-05
      3.08371  4.34202e-05
      3.08473  4.13041e-05
      3.08576  4.15457e-05
      3.08679  4.27494e-05
      3.08782  4.33896e-05
      3.08885  4.37668e-05
      3.08988  4.27039e-05
      3.09091  3.98592e-05
      3.09194  4.23387e-05
      3.09297  4.53048e-05
      3.09400  4.61247e-05
      3.09503  4.29700e-05
      3.09606  4.47947e-05
      3.09710  4.39467e-05
      3.09813  4.45105e-05
      3.09916  4.59413e-05
      3.10020  4.73880e-05
      3.10123  4.81952e-05
      3.10226  4.66649e-05
      3.10329  4.77181e-05
      3.10432  4.85405e-05
      3.10536  4.66336e-05
      3.10640  4.51349e-05
      3.10743  4.73516e-05
      3.10847  4.58316e-05
      3.10951  4.88214e-05
      3.11055  4.50853e-05
      3.11158  4.89597e-05
      3.11262  4.76482e-05
      3.11365  4.70135e-05
      3.11469  4.50011e-05
      3.11573  4.93095e-05
      3.11677  4.62440e-05
      3.11781  4.79865e-05
      3.11884  4.62179e-05
      3.11989  5.11367e-05
      3.12093  4.82236e-05
      3.12196  5.15992e-05
      3.12301  5.07320e-05
      3.12405  5.15588e-05
      3.12509  5.15873e-05
      3.12613  5.16411e-05
      3.12718  5.16976e-05
      3.12822  4.97151e-05
      3.12926  4.98986e-05
      3.13030  4.72861e-05
      3.13135  4.70558e-05
      3.13239  4.99387e-05
      3.13343  4.91923e-05
      3.13448  5.24790e-05
      3.13552  4.75288e-05
      3.13657  5.25184e-05
      3.13762  5.11364e-05
      3.13866  5.42686e-05
      3.13970  5.58576e-05
      3.14075  5.43551e-05
      3.14180  5.38326e-05
      3.14285  5.47877e-05
      3.14390  5.15348e-05
      3.14494  5.49843e-05
      3.14599  5.62387e-05
      3.14704  5.58459e-05
      3.14809  5.24267e-05
      3.14914  5.56805e-05
      3.15019  5.64382e-05
      3.15124  5.88090e-05
      3.15229  5.60004e-05
      3.15334  5.49613e-05
      3.15439  5.52760e-05
      3.15544  5.59561e-05
      3.15649  5.41000e-05
      3.15755  5.38874e-05
      3.15860  5.80151e-05
      3.15965  5.87797e-05
      3.16070  6.02067e-05
      3.16176  5.96416e-05
      3.16282  5.95234e-05
      3.16387  6.04169e-05
      3.16492  5.87963e-05
      3.16597  5.99574e-05
      3.16703  6.05116e-05
      3.16809  6.01354e-05
      3.16915  5.93901e-05
      3.17020  6.17611e-05
      3.17125  6.16934e-05
      3.17231  6.09871e-05
      3.17337  6.14441e-05
      3.17443  6.06960e-05
      3.17548  6.44561e-05
      3.17655  6.06486e-05
      3.17761  6.10347e-05
      3.17866  5.62243e-05
      3.17972  6.04546e-05
      3.18078  5.99512e-05
      3.18184  6.38462e-05
      3.18291  6.20491e-05
      3.18397  6.25049e-05
      3.18502  6.45629e-05
      3.18609  6.36371e-05
      3.18716  6.78774e-05
      3.18821  6.73721e-05
      3.18927  6.19576e-05
      3.19033  6.70513e-05
      3.19140  6.77133e-05
      3.19246  6.16661e-05
      3.19353  6.75470e-05
      3.19459  6.57287e-05
      3.19566  6.80238e-05
      3.19672  6.89371e-05
      3.19779  6.76550e-05
      3.19885  6.69775e-05
      3.19992  6.27882e-05
      3.20098  6.68484e-05
      3.20206  6.72564e-05
      3.20313  6.90589e-05
      3.20419  6.88272e-05
      3.20526  6.97835e-05
      3.20632  7.38267e-05
      3.20740  7.20433e-05
      3.20847  7.28506e-05
      3.20953  7.38799e-05
      3.21061  7.18654e-05
      3.21168  7.36987e-05
      3.21274  7.39379e-05
      3.21382  7.47286e-05
      3.21489  7.00271e-05
      3.21596  7.62476e-05
      3.21703  7.43116e-05
      3.21811  7.24991e-05
      3.21918  7.34013e-05
      3.22025  7.53095e-05
      3.22132  7.20674e-05
      3.22240  7.51404e-05
      3.22347  7.67251e-05
      3.22454  7.44784e-05
      3.22562  7.74220e-05
      3.22669  7.52026e-05
      3.22777  7.62569e-05
      3.22885  6.94890e-05
      3.22993  7.60332e-05
      3.23100  8.19280e-05
      3.23207  7.39779e-05
      3.23315  7.44453e-05
      3.23423  7.96971e-05
      3.23531  8.09360e-05
      3.23639  7.73521e-05
      3.23747  7.99118e-05
      3.23855  7.58610e-05
      3.23963  7.74938e-05
      3.24071  7.99904e-05
      3.24179  8.18121e-05
      3.24287  7.91085e-05
      3.24395  8.11437e-05
      3.24503  7.65403e-05
      3.24611  7.90081e-05
      3.24719  8.32398e-05
      3.24827  8.44146e-05
      3.24935  8.35783e-05
      3.25044  8.03218e-05
      3.25153  8.68026e-05
      3.25261  8.47558e-05
      3.25369  8.53203e-05
      3.25477  8.44455e-05
      3.25586  8.69001e-05
      3.25695  8.74544e-05
      3.25804  8.66192e-05
      3.25912  8.79112e-05
      3.26020  8.75837e-05
      3.26129  8.82244e-05
      3.26238  8.94894e-05
      3.26347  8.76228e-05
      3.26455  8.44687e-05
      3.26564  8.72357e-05
      3.26673  8.97700e-05
      3.26782  9.06428e-05
      3.26890  8.51865e-05
      3.27000  8.83880e-05
      3.27109  8.80590e-05
      3.27217  9.29776e-05
      3.27327  9.27678e-05
      3.27436  8.87066e-05
      3.27545  8.81573e-05
      3.27654  8.77963e-05
      3.27763  9.10466e-05
      3.27873  9.11380e-05
      3.27982  9.23920e-05
      3.28092  8.75684e-05
      3.28201  8.50436e-05
      3.28311  9.49023e-05
      3.28420  8.90606e-05
      3.28528  9.17461e-05
      3.28639  8.91016e-05
      3.28749  8.57401e-05
      3.28858  9.34922e-05
      3.28968  9.73972e-05
      3.29077  9.40148e-05
      3.29187  9.59928e-05
      3.29296  8.93918e-05
      3.29406  8.92685e-05
      3.29516  9.46067e-05
      3.29626  9.72952e-05
      3.29736  9.58511e-05
      3.29845  9.75762e-05
      3.29956  9.85563e-05
      3.30066  9.44667e-05
      3.30175  9.92956e-05
      3.30286  0.000100855
      3.30396  9.90937e-05
      3.30506  9.69607e-05
      3.30616  9.97081e-05
      3.30726  0.000100688
      3.30836  9.85142e-05
      3.30947  9.50089e-05
      3.31058  0.000100688
      3.31168  9.71570e-05
      3.31278  0.000100550
      3.31388  0.000101921
      3.31499  9.79755e-05
      3.31609  9.96721e-05
      3.31720  9.73395e-05
      3.31831  0.000103456
      3.31941  9.71941e-05
      3.32051  9.50262e-05
      3.32162  0.000101142
      3.32273  0.000100425
      3.32384  0.000102956
      3.32495  0.000102484
      3.32605  0.000100368
      3.32716  0.000102618
      3.32827  0.000105143
      3.32938  0.000107509
      3.33049  0.000103160
      3.33160  0.000104589
      3.33271  0.000106406
      3.33382  0.000107225
      3.33493  0.000105525
      3.33605  0.000103950
      3.33716  9.81689e-05
      3.33827  9.55765e-05
      3.33938  9.40069e-05
      3.34049  0.000103662
      3.34161  0.000102862
      3.34273  0.000104203
      3.34384  0.000101512
      3.34495  0.000106881
      3.34607  0.000109371
      3.34718  0.000111801
      3.34830  0.000107982
      3.34942  0.000108939
      3.35053  0.000110424
      3.35164  0.000110743
      3.35276  0.000112406
      3.35388  0.000109957
      3.35500  0.000110072
      3.35612  0.000110738
      3.35724  0.000106031
      3.35836  0.000112078
      3.35947  0.000114181
      3.36060  0.000112499
      3.36172  0.000114069
      3.36283  0.000113041
      3.36396  0.000113011
      3.36508  0.000112948
      3.36620  0.000111067
      3.36732  0.000115834
      3.36844  0.000115333
      3.36957  0.000114776
      3.37069  0.000116764
      3.37182  0.000115904
      3.37294  0.000115552
      3.37407  0.000119121
      3.37519  0.000117453
      3.37632  0.000114985
      3.37744  0.000115487
      3.37857  0.000117653
      3.37969  0.000118952
      3.38082  0.000119210
      3.38194  0.000116717
      3.38307  0.000121773
      3.38419  0.000120086
      3.38533  0.000119323
      3.38646  0.000119633
      3.38758  0.000121393
      3.38871  0.000122924
      3.38984  0.000121531
      3.39097  0.000125421
      3.39210  0.000117059
      3.39323  0.000112211
      3.39436  0.000117751
      3.39550  0.000116061
      3.39663  0.000112901
      3.39776  0.000112775
      3.39889  0.000115812
      3.40003  0.000125626
      3.40116  0.000122963
      3.40229  0.000126350
      3.40342  0.000124865
      3.40456  0.000125455
      3.40570  0.000124793
      3.40683  0.000120969
      3.40796  0.000125506
      3.40910  0.000124914
      3.41024  0.000126374
      3.41138  0.000128771
      3.41251  0.000127824
      3.41365  0.000121306
      3.41479  0.000122911
      3.41593  0.000129049
      3.41707  0.000128426
      3.41821  0.000129550
      3.41935  0.000129082
      3.42049  0.000130696
      3.42163  0.000132031
      3.42277  0.000132187
      3.42391  0.000133199
      3.42505  0.000130509
      3.42619  0.000133656
      3.42733  0.000132488
      3.42847  0.000132718
      3.42962  0.000135696
      3.43076  0.000132080
      3.43190  0.000134474
      3.43304  0.000135038
      3.43419  0.000133492
      3.43534  0.000136281
      3.43648  0.000134768
      3.43762  0.000135905
      3.43877  0.000134807
      3.43992  0.000135593
      3.44107  0.000135269
      3.44221  0.000137388
      3.44336  0.000137386
      3.44451  0.000134430
      3.44566  0.000136652
      3.44681  0.000137252
      3.44795  0.000133006
      3.44910  0.000130170
      3.45025  0.000140256
      3.45140  0.000138581
      3.45255  0.000129025
      3.45370  0.000132575
      3.45486  0.000140513
      3.45601  0.000129139
      3.45715  0.000130795
      3.45831  0.000128716
      3.45946  0.000133366
      3.46062  0.000133591
      3.46177  0.000142199
      3.46293  0.000141822
      3.46408  0.000142561
      3.46524  0.000133243
      3.46639  0.000143478
      3.46755  0.000144421
      3.46870  0.000144632
      3.46986  0.000146283
      3.47101  0.000142228
      3.47217  0.000145982
      3.47333  0.000145893
      3.47448  0.000143251
      3.47564  0.000145430
      3.47680  0.000145787
      3.47796  0.000145694
      3.47912  0.000146205
      3.48028  0.000147727
      3.48144  0.000143397
      3.48260  0.000145934
      3.48376  0.000148087
      3.48492  0.000143859
      3.48608  0.000147332
      3.48724  0.000142506
      3.48841  0.000148341
      3.48957  0.000148748
      3.49073  0.000146743
      3.49190  0.000145697
      3.49306  0.000146879
      3.49423  0.000148589
      3.49539  0.000150605
      3.49655  0.000148689
      3.49772  0.000149494
      3.49889  0.000144451
      3.50004  0.000148401
      3.50122  0.000149867
      3.50239  0.000151624
      3.50355  0.000152227
      3.50472  0.000149106
      3.50590  0.000150323
      3.50706  0.000150700
      3.50822  0.000140910
      3.50940  0.000146997
      3.51057  0.000142468
      3.51174  0.000148575
      3.51291  0.000138852
      3.51409  0.000146123
      3.51525  0.000152562
      3.51641  0.000151839
      3.51759  0.000151707
      3.51876  0.000143848
      3.51993  0.000135948
      3.52111  0.000142690
      3.52229  0.000138701
      3.52347  0.000149982
      3.52464  0.000142376
      3.52581  0.000153113
      3.52698  0.000151993
      3.52816  0.000151033
      3.52934  0.000152907
      3.53052  0.000154755
      3.53169  0.000154804
      3.53286  0.000155096
      3.53405  0.000152650
      3.53523  0.000153720
      3.53640  0.000153840
      3.53758  0.000150742
      3.53876  0.000150339
      3.53994  0.000154893
      3.54112  0.000154346
      3.54230  0.000153594
      3.54348  0.000155564
      3.54466  0.000150761
      3.54584  0.000155312
      3.54702  0.000155677
      3.54820  0.000152223
      3.54939  0.000155600
      3.55058  0.000155403
      3.55176  0.000155842
      3.55295  0.000153732
      3.55413  0.000155883
      3.55531  0.000158077
      3.55650  0.000155472
      3.55768  0.000156922
      3.55886  0.000156647
      3.56005  0.000154730
      3.56124  0.000158361
      3.56243  0.000156900
      3.56362  0.000159036
      3.56480  0.000158463
      3.56598  0.000158437
      3.56717  0.000157840
      3.56836  0.000158012
      3.56955  0.000150767
      3.57074  0.000146051
      3.57193  0.000148719
      3.57312  0.000149136
      3.57431  0.000152266
      3.57550  0.000149438
      3.57670  0.000151547
      3.57790  0.000159680
      3.57909  0.000158796
      3.58028  0.000160227
      3.58147  0.000158661
      3.58267  0.000159105
      3.58387  0.000160805
      3.58506  0.000160205
      3.58625  0.000158868
      3.58745  0.000149525
      3.58865  0.000151952
      3.58984  0.000149429
      3.59103  0.000155543
      3.59223  0.000149564
      3.59343  0.000159528
      3.59463  0.000161661
      3.59583  0.000161678
      3.59703  0.000158310
      3.59823  0.000161538
      3.59943  0.000158805
      3.60062  0.000156914
      3.60182  0.000161167
      3.60302  0.000157646
      3.60423  0.000163930
      3.60543  0.000162852
      3.60663  0.000160571
      3.60783  0.000164001
      3.60903  0.000162209
      3.61023  0.000164534
      3.61144  0.000162081
      3.61265  0.000162845
      3.61385  0.000160892
      3.61504  0.000161212
      3.61625  0.000161094
      3.61746  0.000160555
      3.61867  0.000163650
      3.61987  0.000162756
      3.62108  0.000163155
      3.62229  0.000160849
      3.62350  0.000161886
      3.62470  0.000163292
      3.62591  0.000161401
      3.62712  0.000162540
      3.62833  0.000164679
      3.62953  0.000164058
      3.63074  0.000162712
      3.63196  0.000156007
      3.63317  0.000157745
      3.63438  0.000163172
      3.63559  0.000147555
      3.63681  0.000148282
      3.63802  0.000151444
      3.63923  0.000163346
      3.64044  0.000152339
      3.64165  0.000164244
      3.64287  0.000165294
      3.64409  0.000164850
      3.64530  0.000164550
      3.64651  0.000163390
      3.64773  0.000158619
      3.64894  0.000163290
      3.65016  0.000161738
      3.65137  0.000164275
      3.65259  0.000163415
      3.65382  0.000163676
      3.65503  0.000159964
      3.65625  0.000161987
      3.65746  0.000161480
      3.65868  0.000154148
      3.65991  0.000148778
      3.66113  0.000161857
      3.66235  0.000151854
      3.66356  0.000163566
      3.66479  0.000164641
      3.66601  0.000163230
      3.66724  0.000164201
      3.66845  0.000165800
      3.66967  0.000165583
      3.67090  0.000165382
      3.67212  0.000165735
      3.67335  0.000163565
      3.67457  0.000164918
      3.67580  0.000163082
      3.67702  0.000163240
      3.67825  0.000165105
      3.67947  0.000163071
      3.68070  0.000164650
      3.68192  0.000164408
      3.68315  0.000165222
      3.68439  0.000163798
      3.68561  0.000163918
      3.68684  0.000166573
      3.68806  0.000166691
      3.68930  0.000165465
      3.69053  0.000164950
      3.69176  0.000164775
      3.69299  0.000165147
      3.69422  0.000163781
      3.69545  0.000159114
      3.69668  0.000159838
      3.69792  0.000163964
      3.69915  0.000155557
      3.70038  0.000159903
      3.70162  0.000163182
      3.70285  0.000166367
      3.70408  0.000157403
      3.70532  0.000163585
      3.70655  0.000147759
      3.70779  0.000157902
      3.70902  0.000155540
      3.71026  0.000166808
      3.71150  0.000166552
      3.71273  0.000162973
      3.71397  0.000162627
      3.71521  0.000167203
      3.71645  0.000165454
      3.71768  0.000164377
      3.71892  0.000165649
      3.72017  0.000165336
      3.72141  0.000165933
      3.72265  0.000164690
      3.72389  0.000166709
      3.72513  0.000166960
      3.72636  0.000165945
      3.72760  0.000167577
      3.72885  0.000166567
      3.73009  0.000167670
      3.73134  0.000166280
      3.73259  0.000154455
      3.73383  0.000158944
      3.73508  0.000152021
      3.73632  0.000163465
      3.73756  0.000156519
      3.73880  0.000165651
      3.74006  0.000166313
      3.74131  0.000165281
      3.74255  0.000165680
      3.74379  0.000166817
      3.74504  0.000164023
      3.74629  0.000166004
      3.74754  0.000167486
      3.74879  0.000167386
      3.75004  0.000167676
      3.75129  0.000166005
      3.75254  0.000166951
      3.75379  0.000166459
      3.75504  0.000166330
      3.75630  0.000165542
      3.75755  0.000166711
      3.75880  0.000167393
      3.76005  0.000167397
      3.76130  0.000167501
      3.76256  0.000159325
      3.76381  0.000158216
      3.76506  0.000166228
      3.76632  0.000159801
      3.76758  0.000159526
      3.76883  0.000163352
      3.77009  0.000162231
      3.77135  0.000164907
      3.77261  0.000166348
      3.77387  0.000159414
      3.77513  0.000166568
      3.77639  0.000158357
      3.77765  0.000163874
      3.77890  0.000150071
      3.78015  0.000164495
      3.78141  0.000158366
      3.78268  0.000166495
      3.78395  0.000166071
      3.78521  0.000168289
      3.78647  0.000166059
      3.78773  0.000166907
      3.78899  0.000167349
      3.79025  0.000166378
      3.79151  0.000167150
      3.79277  0.000166784
      3.79404  0.000167502
      3.79530  0.000166883
      3.79657  0.000165898
      3.79784  0.000166819
      3.79910  0.000166334
      3.80037  0.000164185
      3.80164  0.000168266
      3.80290  0.000167337
      3.80417  0.000167978
      3.80544  0.000164453
      3.80670  0.000165851
      3.80797  0.000161657
      3.80924  0.000167647
      3.81051  0.000155871
      3.81178  0.000162066
      3.81306  0.000147786
      3.81433  0.000167514
      3.81559  0.000155702
      3.81687  0.000165672
      3.81814  0.000165956
      3.81941  0.000167203
      3.82069  0.000166343
      3.82196  0.000167144
      3.82323  0.000165819
      3.82450  0.000167386
      3.82578  0.000165154
      3.82706  0.000165089
      3.82833  0.000166745
      3.82961  0.000164854
      3.83089  0.000166161
      3.83217  0.000165197
      3.83344  0.000159842
      3.83472  0.000156211
      3.83600  0.000156430
      3.83728  0.000165185
      3.83855  0.000159683
      3.83983  0.000161858
      3.84111  0.000162514
      3.84240  0.000165555
      3.84368  0.000166923
      3.84496  0.000167636
      3.84624  0.000164761
      3.84752  0.000164716
      3.84881  0.000164996
      3.85009  0.000164612
      3.85137  0.000166307
      3.85266  0.000158416
      3.85394  0.000161844
      3.85522  0.000151630
      3.85651  0.000166665
      3.85780  0.000157203
      3.85908  0.000164562
      3.86037  0.000167429
      3.86165  0.000167766
      3.86294  0.000162403
      3.86423  0.000165304
      3.86551  0.000165526
      3.86681  0.000164061
      3.86809  0.000163856
      3.86938  0.000166096
      3.87068  0.000165745
      3.87196  0.000162907
      3.87325  0.000164763
      3.87454  0.000165894
      3.87584  0.000165606
      3.87713  0.000164525
      3.87842  0.000165710
      3.87971  0.000165257
      3.88100  0.000165695
      3.88230  0.000166020
      3.88359  0.000166799
      3.88489  0.000166179
      3.88618  0.000165242
      3.88748  0.000164965
      3.88877  0.000163861
      3.89007  0.000165251
      3.89136  0.000163776
      3.89266  0.000156421
      3.89397  0.000161469
      3.89526  0.000148302
      3.89656  0.000163816
      3.89785  0.000154722
      3.89916  0.000164448
      3.90046  0.000165678
      3.90176  0.000166107
      3.90306  0.000162041
      3.90436  0.000161109
      3.90566  0.000164574
      3.90696  0.000165361
      3.90827  0.000156756
      3.90957  0.000155608
      3.91087  0.000158198
      3.91218  0.000163054
      3.91348  0.000158707
      3.91478  0.000162811
      3.91609  0.000165315
      3.91739  0.000164570
      3.91870  0.000165406
      3.92000  0.000162823
      3.92131  0.000165315
      3.92262  0.000163586
      3.92392  0.000162386
      3.92523  0.000165514
      3.92654  0.000164309
      3.92786  0.000164502
      3.92916  0.000165126
      3.93046  0.000161980
      3.93178  0.000162108
      3.93309  0.000155426
      3.93440  0.000163870
      3.93571  0.000151488
      3.93703  0.000163947
      3.93834  0.000155812
      3.93965  0.000163410
      3.94096  0.000162738
      3.94228  0.000164441
      3.94359  0.000164794
      3.94490  0.000163919
      3.94621  0.000162896
      3.94754  0.000163005
      3.94886  0.000163698
      3.95017  0.000161572
      3.95148  0.000162028
      3.95280  0.000162451
      3.95412  0.000163159
      3.95544  0.000162880
      3.95676  0.000162330
      3.95808  0.000163201
      3.95939  0.000161545
      3.96071  0.000163361
      3.96203  0.000162857
      3.96336  0.000161984
      3.96468  0.000161435
      3.96600  0.000162907
      3.96732  0.000162838
      3.96864  0.000162104
      3.96996  0.000161870
      3.97128  0.000162145
      3.97261  0.000163027
      3.97393  0.000161435
      3.97526  0.000162701
      3.97659  0.000159428
      3.97792  0.000157579
      3.97924  0.000154251
      3.98056  0.000153350
      3.98189  0.000150654
      3.98322  0.000156990
      3.98455  0.000153402
      3.98588  0.000152539
      3.98721  0.000160660
      3.98854  0.000151520
      3.98987  0.000160301
      3.99120  0.000153299
      3.99253  0.000160422
      3.99386  0.000160865
      3.99519  0.000162248
      3.99652  0.000159971
      3.99785  0.000160579
      3.99918  0.000157727
      4.00050  0.000161564
      4.00185  0.000160118
      4.00318  0.000161458
      4.00452  0.000159503
      4.00585  0.000160402
      4.00718  0.000158951
      4.00852  0.000160120
      4.00986  0.000160524
      4.01120  0.000161460
      4.01253  0.000160610
      4.01386  0.000159494
      4.01520  0.000159638
      4.01654  0.000158703
      4.01788  0.000152462
      4.01922  0.000157565
      4.02056  0.000147346
      4.02190  0.000159877
      4.02324  0.000151601
      4.02458  0.000160094
      4.02592  0.000159838
      4.02726  0.000160106
      4.02861  0.000160387
      4.02996  0.000158167
      4.03130  0.000159441
      4.03264  0.000159133
      4.03398  0.000157966
      4.03533  0.000161002
      4.03668  0.000157544
      4.03802  0.000160595
      4.03936  0.000160299
      4.04071  0.000156158
      4.04206  0.000158591
      4.04341  0.000155066
      4.04476  0.000150744
      4.04610  0.000157983
      4.04745  0.000156760
      4.04880  0.000158009
      4.05015  0.000157819
      4.05150  0.000156227
      4.05285  0.000155321
      4.05420  0.000157177
      4.05555  0.000156783
      4.05691  0.000155898
      4.05826  0.000157529
      4.05961  0.000153748
      4.06097  0.000156354
      4.06232  0.000154885
      4.06367  0.000156235
      4.06503  0.000157100
      4.06638  0.000156847
      4.06773  0.000157163
      4.06909  0.000150923
      4.07045  0.000151395
      4.07181  0.000146462
      4.07317  0.000154380
      4.07452  0.000144860
      4.07587  0.000150262
      4.07723  0.000155336
      4.07859  0.000157116
      4.07995  0.000155652
      4.08131  0.000156401
      4.08267  0.000156873
      4.08403  0.000152121
      4.08539  0.000153517
      4.08676  0.000154153
      4.08813  0.000155100
      4.08949  0.000155660
      4.09085  0.000154608
      4.09221  0.000153961
      4.09357  0.000155414
      4.09494  0.000156545
      4.09631  0.000155126
      4.09767  0.000154905
      4.09904  0.000154966
      4.10041  0.000156639
      4.10177  0.000155291
      4.10314  0.000154890
      4.10451  0.000156794
      4.10587  0.000157342
      4.10724  0.000149513
      4.10861  0.000149282
      4.10998  0.000146892
      4.11135  0.000154989
      4.11272  0.000151332
      4.11409  0.000155282
      4.11546  0.000153310
      4.11684  0.000154251
      4.11821  0.000153156
      4.11958  0.000155855
      4.12096  0.000155061
      4.12233  0.000156318
      4.12370  0.000152837
      4.12508  0.000153348
      4.12645  0.000154831
      4.12782  0.000155268
      4.12920  0.000151196
      4.13058  0.000153668
      4.13196  0.000153849
      4.13334  0.000152976
      4.13471  0.000152716
      4.13608  0.000152194
      4.13746  0.000150162
      4.13884  0.000151504
      4.14022  0.000149822
      4.14160  0.000155040
      4.14298  0.000153093
      4.14436  0.000153116
      4.14575  0.000153531
      4.14714  0.000153183
      4.14852  0.000154644
      4.14990  0.000151998
      4.15128  0.000153014
      4.15266  0.000155494
      4.15404  0.000154216
      4.15543  0.000151174
      4.15682  0.000148988
      4.15820  0.000146500
      4.15959  0.000152502
      4.16098  0.000148509
      4.16236  0.000149423
      4.16375  0.000152118
      4.16514  0.000151756
      4.16653  0.000144142
      4.16792  0.000144988
      4.16930  0.000149712
      4.17069  0.000145148
      4.17208  0.000145748
      4.17347  0.000152349
      4.17487  0.000151239
      4.17626  0.000153327
      4.17765  0.000150158
      4.17904  0.000152073
      4.18043  0.000151136
      4.18183  0.000151626
      4.18323  0.000151669
      4.18462  0.000147115
      4.18601  0.000149343
      4.18741  0.000150440
      4.18881  0.000152116
      4.19020  0.000149947
      4.19159  0.000149108
      4.19299  0.000149424
      4.19439  0.000150806
      4.19579  0.000151924
      4.19719  0.000150260
      4.19859  0.000149336
      4.19999  0.000150116
      4.20139  0.000143532
      4.20279  0.000144701
      4.20419  0.000143342
      4.20559  0.000147405
      4.20699  0.000144372
      4.20839  0.000148355
      4.20979  0.000146824
      4.21120  0.000148272
      4.21261  0.000146794
      4.21401  0.000146135
      4.21541  0.000146964
      4.21682  0.000145695
      4.21823  0.000146539
      4.21963  0.000142975
      4.22103  0.000145187
      4.22244  0.000139511
      4.22385  0.000144066
      4.22526  0.000142617
      4.22667  0.000143093
      4.22808  0.000139761
      4.22949  0.000138877
      4.23089  0.000136463
      4.23230  0.000134330
      4.23372  0.000129324
      4.23513  0.000126091
      4.23654  0.000120762
      4.23795  0.000115526
      4.23936  0.000108607
      4.24078  0.000102724
      4.24219  9.68689e-05
      4.24360  8.99500e-05
      4.24502  8.43252e-05
      4.24644  7.71063e-05
      4.24785  6.94659e-05
      4.24926  6.47431e-05
      4.25068  5.50126e-05
      4.25210  5.10504e-05
      4.25352  4.50224e-05
      4.25494  4.14014e-05
      4.25636  3.64295e-05
      4.25778  3.16876e-05
      4.25919  2.77604e-05
      4.26060  2.42252e-05
      4.26203  2.08057e-05
      4.26346  1.77976e-05
      4.26488  1.53181e-05
      4.26630  1.32760e-05
      4.26772  1.17501e-05
      4.26914  1.06714e-05
      4.27056  1.13503e-05
      4.27198  1.25718e-05
      4.27341  1.56180e-05
      4.27484  2.13751e-05
      4.27626  2.83023e-05
      4.27768  3.76422e-05
      4.27911  4.84378e-05
      4.28054  5.98689e-05
      4.28196  7.15079e-05
      4.28339  8.36576e-05
      4.28482  9.81754e-05
      4.28625  0.000110166
      4.28768  0.000120714
      4.28910  0.000128499
      4.29053  0.000135089
      4.29196  0.000138924
      4.29339  0.000139174
      4.29483  0.000132310
      4.29626  0.000132550
      4.29769  0.000137252
      4.29912  0.000141850
      4.30055  0.000136979
      4.30199  0.000138480
      4.30342  0.000138759
      4.30485  0.000142018
      4.30629  0.000138964
      4.30773  0.000144385
      4.30917  0.000142547
      4.31060  0.000142564
      4.31203  0.000142947
      4.31347  0.000141935
      4.31491  0.000148402
      4.31635  0.000141100
      4.31779  0.000142722
      4.31923  0.000142307
      4.32067  0.000148226
      4.32211  0.000142696
      4.32355  0.000142988
      4.32499  0.000146771
      4.32643  0.000142216
      4.32787  0.000147080
      4.32931  0.000143146
      4.33076  0.000141781
      4.33221  0.000147776
      4.33365  0.000140202
      4.33509  0.000149076
      4.33653  0.000139797
      4.33798  0.000146777
      4.33943  0.000139402
      4.34087  0.000146287
      4.34232  0.000140528
      4.34377  0.000145944
      4.34522  0.000137316
      4.34667  0.000145609
      4.34811  0.000135903
      4.34956  0.000147040
      4.35101  0.000128886
      4.35246  0.000138872
      4.35392  0.000134448
      4.35537  0.000140519
      4.35682  0.000137832
      4.35827  0.000143822
      4.35972  0.000139068
      4.36118  0.000139969
      4.36263  0.000142832
      4.36408  0.000135142
      4.36554  0.000143204
      4.36700  0.000133747
      4.36845  0.000140081
      4.36990  0.000142564
      4.37136  0.000137544
      4.37282  0.000140827
      4.37428  0.000132235
      4.37574  0.000134933
      4.37720  0.000139190
      4.37866  0.000128061
      4.38012  0.000138714
      4.38158  0.000128565
      4.38304  0.000133456
      4.38450  0.000138301
      4.38596  0.000125830
      4.38742  0.000135302
      4.38888  0.000135560
      4.39034  0.000125606
      4.39180  0.000139650
      4.39327  0.000133934
      4.39474  0.000133223
      4.39620  0.000135952
      4.39766  0.000137602
      4.39913  0.000132110
      4.40060  0.000144018
      4.40206  0.000129648
      4.40353  0.000141914
      4.40500  0.000133488
      4.40647  0.000132053
      4.40794  0.000126141
      4.40941  0.000137403
      4.41088  0.000128833
      4.41235  0.000132980
      4.41382  0.000139308
      4.41529  0.000130536
      4.41676  0.000136868
      4.41823  0.000133181
      4.41971  0.000138599
      4.42118  0.000129666
      4.42265  0.000135180
      4.42413  0.000138783
      4.42560  0.000124885
      4.42707  0.000142560
      4.42855  0.000134033
      4.43003  0.000129711
      4.43151  0.000138484
      4.43299  0.000134683
      4.43446  0.000129564
      4.43593  0.000135606
      4.43741  0.000134755
      4.43889  0.000135723
      4.44037  0.000125083
      4.44185  0.000137025
      4.44333  0.000137928
      4.44481  0.000127093
      4.44629  0.000137898
      4.44778  0.000139952
      4.44927  0.000128421
      4.45075  0.000129707
      4.45223  0.000135315
      4.45371  0.000132936
      4.45520  0.000127149
      4.45669  0.000138390
      4.45817  0.000131220
      4.45965  0.000138801
      4.46114  0.000127296
      4.46263  0.000135985
      4.46411  0.000136146
      4.46560  0.000129728
      4.46709  0.000124946
      4.46858  0.000136692
      4.47007  0.000132957
      4.47156  0.000122506
      4.47305  0.000137640
      4.47454  0.000131756
      4.47604  0.000131321
      4.47753  0.000124029
      4.47902  0.000138662
      4.48051  0.000128601
      4.48200  0.000133748
      4.48350  0.000130581
      4.48500  0.000128523
      4.48649  0.000139390
      4.48798  0.000134755
      4.48948  0.000121898
      4.49098  0.000132322
      4.49248  0.000129424
      4.49397  0.000133098
      4.49546  0.000122292
      4.49696  0.000132985
      4.49846  0.000134943
      4.49994  0.000130914
      4.50146  0.000127819
      4.50297  0.000136502
      4.50447  0.000131150
      4.50596  0.000124011
      4.50747  0.000130468
      4.50898  0.000129781
      4.51048  0.000129777
      4.51198  0.000133076
      4.51348  0.000125058
      4.51499  0.000133729
      4.51649  0.000128224
      4.51800  0.000131284
      4.51951  0.000126159
      4.52101  0.000130158
      4.52252  0.000126776
      4.52403  0.000131544
      4.52554  0.000126677
      4.52704  0.000123026
      4.52855  0.000131015
      4.53006  0.000135842
      4.53157  0.000124149
      4.53307  0.000123226
      4.53459  0.000130354
      4.53611  0.000130787
      4.53762  0.000136295
      4.53913  0.000122431
      4.54064  0.000135018
      4.54215  0.000126536
      4.54367  0.000134348
      4.54518  0.000120532
      4.54670  0.000128939
      4.54822  0.000132127
      4.54973  0.000130749
      4.55124  0.000123477
      4.55276  0.000127044
      4.55428  0.000130494
      4.55580  0.000135658
      4.55732  0.000124225
      4.55884  0.000122194
      4.56036  0.000134237
      4.56187  0.000127105
      4.56339  0.000127651
      4.56492  0.000129662
      4.56644  0.000124881
      4.56796  0.000126498
      4.56949  0.000126485
      4.57101  0.000127173
      4.57253  0.000126736
      4.57406  0.000132986
      4.57559  0.000124852
      4.57711  0.000134364
      4.57863  0.000128876
      4.58016  0.000122567
      4.58169  0.000128721
      4.58322  0.000133491
      4.58475  0.000122676
      4.58628  0.000131325
      4.58781  0.000126156
      4.58934  0.000118832
      4.59087  0.000130746
      4.59240  0.000133839
      4.59393  0.000123695
      4.59546  0.000116086
      4.59699  0.000129924
      4.59852  0.000132939
      4.60005  0.000127866
      4.60158  0.000122044
      4.60311  0.000129160
      4.60465  0.000127234
      4.60619  0.000134385
      4.60772  0.000126326
      4.60925  0.000116541
      4.61079  0.000135415
      4.61233  0.000127704
      4.61386  0.000127187
      4.61540  0.000122112
      4.61694  0.000125744
      4.61847  0.000131171
      4.62001  0.000125898
      4.62156  0.000129719
      4.62310  0.000127710
      4.62464  0.000128022
      4.62618  0.000119131
      4.62772  0.000135619
      4.62926  0.000133427
      4.63082  0.000122538
      4.63236  0.000131102
      4.63390  0.000123815
      4.63544  0.000132475
      4.63698  0.000119020
      4.63853  0.000131102
      4.64008  0.000127041
      4.64163  0.000131544
      4.64317  0.000124464
      4.64472  0.000128350
      4.64627  0.000128728
      4.64782  0.000127424
      4.64937  0.000128968
      4.65091  0.000130541
      4.65246  0.000122918
      4.65401  0.000126505
      4.65556  0.000134415
      4.65712  0.000127146
      4.65867  0.000130950
      4.66022  0.000117790
      4.66178  0.000129217
      4.66333  0.000123705
      4.66488  0.000108806
      4.66644  7.02211e-05
      4.66801  5.20625e-05
      4.66956  4.52226e-05
      4.67111  3.80053e-05
      4.67267  3.29186e-05
      4.67422  3.23563e-05
      4.67578  4.21777e-05
      4.67734  6.56634e-05
      4.67890  9.53803e-05
      4.68046  0.000107656
      4.68202  0.000119000
      4.68358  0.000118650
      4.68514  0.000118705
      4.68671  0.000128407
      4.68827  0.000126270
      4.68983  0.000124602
      4.69140  0.000120053
      4.69296  0.000131890
      4.69452  0.000128993
      4.69609  0.000123005
      4.69765  0.000128660
      4.69921  0.000116813
      4.70078  0.000129775
      4.70235  0.000128001
      4.70392  0.000124426
      4.70548  0.000125813
      4.70706  0.000125215
      4.70863  0.000122227
      4.71020  0.000128726
      4.71176  0.000124685
      4.71333  0.000125397
      4.71491  0.000130121
      4.71648  0.000129330
      4.71805  0.000118485
      4.71961  0.000123266
      4.72119  0.000127207
      4.72276  0.000131389
      4.72434  0.000125858
      4.72591  0.000122457
      4.72749  0.000123894
      4.72906  0.000125003
      4.73064  0.000131550
      4.73222  0.000126298
      4.73381  0.000118407
      4.73538  0.000121736
      4.73696  0.000130083
      4.73853  0.000123574
      4.74011  0.000122761
      4.74169  0.000122900
      4.74328  0.000133583
      4.74486  0.000120349
      4.74643  0.000129866
      4.74802  0.000126348
      4.74960  0.000122674
      4.75118  0.000125548
      4.75276  0.000129629
      4.75435  0.000119839
      4.75594  0.000126123
      4.75752  0.000126648
      4.75911  0.000123879
      4.76070  0.000124807
      4.76228  0.000122597
      4.76387  0.000123486
      4.76545  0.000123788
      4.76705  0.000123756
      4.76864  0.000127437
      4.77023  0.000125055
      4.77182  0.000128426
      4.77341  0.000120466
      4.77499  0.000123618
      4.77659  0.000122967
      4.77818  0.000120488
      4.77977  0.000116918
      4.78136  0.000125000
      4.78296  0.000122951
      4.78456  0.000126886
      4.78615  0.000117464
      4.78775  0.000124499
      4.78935  0.000128845
      4.79095  0.000126870
      4.79254  0.000121384
      4.79414  0.000119128
      4.79574  0.000122181
      4.79734  0.000127463
      4.79893  0.000131863
      4.80053  0.000118888
      4.80213  0.000121719
      4.80373  0.000121172
      4.80533  0.000124135
      4.80692  0.000124618
      4.80853  0.000126789
      4.81014  0.000122191
      4.81174  0.000124865
      4.81335  0.000117512
      4.81495  0.000120736
      4.81655  0.000127464
      4.81816  0.000127346
      4.81977  0.000121761
      4.82137  0.000130489
      4.82298  0.000120416
      4.82458  0.000121104
      4.82619  0.000130263
      4.82780  0.000119629
      4.82941  0.000128792
      4.83102  0.000126668
      4.83263  0.000122565
      4.83425  0.000117380
      4.83586  0.000123630
      4.83747  0.000122291
      4.83909  0.000128514
      4.84069  0.000121607
      4.84230  0.000124938
      4.84392  0.000116125
      4.84553  0.000129511
      4.84714  0.000125005
      4.84876  0.000120894
      4.85038  0.000127660
      4.85200  0.000124656
      4.85362  0.000118961
      4.85524  0.000123527
      4.85686  0.000118626
      4.85848  0.000125347
      4.86010  0.000126610
      4.86172  0.000129990
      4.86334  0.000117509
      4.86496  0.000114929
      4.86658  0.000123492
      4.86820  0.000124562
      4.86982  0.000123926
      4.87144  0.000122705
      4.87306  0.000119851
      4.87468  0.000120370
      4.87631  0.000113303
      4.87794  0.000123033
      4.87956  0.000126096
      4.88120  0.000121544
      4.88283  0.000125977
      4.88445  0.000120045
      4.88608  0.000120040
      4.88771  0.000121924
      4.88933  0.000122473
      4.89096  0.000124236
      4.89259  0.000124163
      4.89422  0.000119995
      4.89585  0.000118564
      4.89748  0.000118158
      4.89912  0.000119958
      4.90075  0.000128223
      4.90239  0.000124878
      4.90402  0.000126890
      4.90565  0.000113776
      4.90729  0.000124804
      4.90893  0.000116709
      4.91056  0.000125038
      4.91220  0.000122122
      4.91384  0.000126044
      4.91547  0.000115269
      4.91710  0.000126076
      4.91875  0.000122141
      4.92039  0.000117602
      4.92203  0.000126921
      4.92368  0.000125209
      4.92532  0.000117239
      4.92696  0.000116222
      4.92860  0.000117769
      4.93024  0.000126398
      4.93189  0.000119738
      4.93353  0.000122926
      4.93517  0.000119564
      4.93681  0.000116151
      4.93846  0.000116703
      4.94011  0.000127736
      4.94176  0.000124608
      4.94341  0.000115435
      4.94505  0.000126808
      4.94669  0.000120796
      4.94835  0.000113656
      4.95000  0.000123543
      4.95164  0.000120267
      4.95330  0.000119418
      4.95495  0.000113473
      4.95660  0.000124446
      4.95826  0.000117736
      4.95991  0.000115439
      4.96157  0.000124693
      4.96322  0.000123533
      4.96487  0.000123862
      4.96653  0.000116553
      4.96818  0.000114142
      4.96983  0.000119204
      4.97150  0.000118531
      4.97315  0.000121883
      4.97481  0.000124417
      4.97647  0.000124053
      4.97813  0.000116651
      4.97978  0.000115067
      4.98144  0.000122497
      4.98311  0.000116837
      4.98477  0.000125116
      4.98643  0.000123455
      4.98808  0.000126113
      4.98975  0.000114378
      4.99141  0.000113293
      4.99308  0.000120870
      4.99474  0.000117671
      4.99641  0.000119455
      4.99807  0.000124332
      4.99972  0.000111850
      5.00140  0.000114696
      5.00308  0.000116624
      5.00474  0.000124328
      5.00640  0.000117696
      5.00807  0.000118973
      5.00975  0.000117837
      5.01143  0.000120906
      5.01309  0.000114641
      5.01475  0.000116005
      5.01643  0.000120458
      5.01810  0.000113187
      5.01977  0.000118830
      5.02145  0.000116305
      5.02312  0.000117560
      5.02480  0.000114446
      5.02647  0.000117598
      5.02815  0.000112936
      5.02982  0.000115342
      5.03150  0.000120310
      5.03317  0.000115162
      5.03485  0.000119913
      5.03652  0.000120983
      5.03821  0.000119814
      5.03990  0.000114421
      5.04157  0.000119764
      5.04325  0.000110346
      5.04492  0.000121180
      5.04661  0.000113070
      5.04830  0.000118359
      5.04997  0.000123925
      5.05166  0.000121064
      5.05335  0.000114055
      5.05503  0.000111811
      5.05671  0.000120458
      5.05840  0.000112307
      5.06009  0.000119202
      5.06177  0.000117451
      5.06346  0.000120769
      5.06515  0.000116152
      5.06684  0.000106991
      5.06852  0.000121504
      5.07021  0.000116998
      5.07191  0.000119806
      5.07360  0.000119858
      5.07529  0.000115015
      5.07699  0.000117630
      5.07867  0.000112048
      5.08036  0.000115833
      5.08206  0.000114826
      5.08375  0.000113020
      5.08544  0.000119420
      5.08714  0.000115943
      5.08884  0.000114770
      5.09054  0.000118151
      5.09224  0.000109369
      5.09394  0.000115014
      5.09562  0.000113909
      5.09731  0.000119672
      5.09901  0.000116376
      5.10071  0.000117443
      5.10241  0.000119372
      5.10411  0.000115944
      5.10582  0.000109837
      5.10754  0.000116414
      5.10924  0.000113408
      5.11094  0.000115697
      5.11264  0.000115872
      5.11434  0.000117242
      5.11604  0.000119983
      5.11775  0.000114928
      5.11946  0.000109800
      5.12116  0.000111829
      5.12286  0.000118122
      5.12458  0.000113471
      5.12629  0.000118678
      5.12799  0.000111808
      5.12970  0.000117162
      5.13141  0.000111730
      5.13312  0.000108701
      5.13484  0.000116496
      5.13655  0.000116561
      5.13826  0.000119521
      5.13998  0.000114586
      5.14169  0.000117649
      5.14340  0.000113352
      5.14511  0.000104439
      5.14682  0.000110330
      5.14855  0.000117581
      5.15026  0.000114712
      5.15197  0.000119145
      5.15370  0.000117501
      5.15541  0.000115814
      5.15712  0.000119278
      5.15885  0.000108173
      5.16057  0.000108344
      5.16230  0.000109278
      5.16401  0.000116569
      5.16572  0.000114078
      5.16745  0.000112461
      5.16917  0.000109249
      5.17090  0.000116392
      5.17263  0.000109766
      5.17435  0.000112943
      5.17607  0.000114509
      5.17780  0.000116344
      5.17952  0.000112525
      5.18125  0.000116083
      5.18297  0.000115961
      5.18470  0.000110600
      5.18642  0.000112534
      5.18816  0.000109903
      5.18990  0.000119199
      5.19163  0.000115352
      5.19335  0.000114545
      5.19508  0.000111487
      5.19681  0.000111707
      5.19855  0.000108841
      5.20027  0.000108726
      5.20201  0.000109960
      5.20375  0.000112846
      5.20547  0.000112246
      5.20721  0.000118423
      5.20895  0.000117156
      5.21069  0.000110515
      5.21242  0.000108692
      5.21416  0.000110595
      5.21590  0.000118722
      5.21764  0.000108573
      5.21938  0.000116435
      5.22111  0.000110801
      5.22286  0.000112585
      5.22460  0.000113238
      5.22634  0.000108308
      5.22809  0.000111128
      5.22983  0.000112593
      5.23156  0.000110965
      5.23331  0.000113474
      5.23506  0.000113546
      5.23681  0.000112284
      5.23855  0.000113465
      5.24029  0.000105108
      5.24204  0.000107953
      5.24379  0.000114502
      5.24554  0.000107514
      5.24729  0.000112009
      5.24904  0.000113743
      5.25079  0.000112318
      5.25254  0.000109643
      5.25429  0.000108695
      5.25604  0.000109048
      5.25779  0.000110605
      5.25954  0.000117902
      5.26129  0.000112384
      5.26305  0.000113025
      5.26481  0.000115591
      5.26656  0.000109242
      5.26831  0.000107842
      5.27006  0.000108586
      5.27182  0.000110885
      5.27359  0.000110323
      5.27534  0.000108947
      5.27710  0.000111110
      5.27886  0.000111772
      5.28061  0.000107502
      5.28237  0.000105487
      5.28414  0.000110960
      5.28590  0.000108117
      5.28766  0.000113719
      5.28942  0.000113829
      5.29119  0.000113700
      5.29295  0.000108020
      5.29471  0.000108415
      5.29647  0.000106652
      5.29825  0.000109829
      5.30001  0.000111121
      5.30177  0.000111819
      5.30355  0.000113800
      5.30531  0.000111058
      5.30708  0.000110031
      5.30885  0.000102332
      5.31063  0.000105499
      5.31240  0.000112033
      5.31416  0.000113268
      5.31593  0.000108423
      5.31770  0.000110665
      5.31947  0.000106679
      5.32125  0.000103910
      5.32302  0.000107133
      5.32480  0.000113653
      5.32657  0.000106990
      5.32835  0.000111766
      5.33012  0.000107322
      5.33190  0.000108392
      5.33367  0.000114262
      5.33545  0.000109490
      5.33724  0.000107901
      5.33903  0.000107578
      5.34080  0.000106172
      5.34258  0.000110308
      5.34435  0.000108686
      5.34614  0.000108051
      5.34792  0.000109038
      5.34970  0.000107545
      5.35149  0.000103917
      5.35327  0.000108086
      5.35505  0.000108672
      5.35684  0.000111379
      5.35862  0.000110021
      5.36041  0.000110774
      5.36220  0.000107981
      5.36399  0.000105717
      5.36578  0.000107429
      5.36756  0.000104362
      5.36935  0.000110117
      5.37114  0.000103203
      5.37294  0.000111409
      5.37472  0.000113667
      5.37651  0.000108743
      5.37831  0.000104581
      5.38010  0.000105034
      5.38189  0.000109605
      5.38369  0.000110443
      5.38549  0.000108481
      5.38727  0.000105498
      5.38906  0.000106897
      5.39086  0.000107296
      5.39266  0.000105948
      5.39446  0.000105389
      5.39626  0.000109773
      5.39806  0.000109214
      5.39986  0.000111670
      5.40166  0.000104925
      5.40346  0.000107928
      5.40526  0.000105004
      5.40706  0.000107487
      5.40886  0.000101827
      5.41066  0.000104581
      5.41246  0.000105818
      5.41427  0.000109638
      5.41609  0.000107291
      5.41789  0.000104680
      5.41969  0.000108740
      5.42150  0.000104125
      5.42331  0.000104672
      5.42511  0.000107017
      5.42692  0.000104168
      5.42874  0.000104122
      5.43054  0.000104145
      5.43235  0.000108022
      5.43416  0.000106633
      5.43598  0.000103817
      5.43779  0.000104138
      5.43960  0.000104513
      5.44141  0.000111474
      5.44322  0.000103374
      5.44504  0.000107348
      5.44685  0.000108459
      5.44867  0.000106775
      5.45049  0.000106329
      5.45230  0.000103154
      5.45412  0.000103997
      5.45594  0.000104249
      5.45775  0.000108652
      5.45957  0.000101696
      5.46140  0.000109332
      5.46322  0.000104634
      5.46504  0.000107087
      5.46685  0.000103207
      5.46868  9.98469e-05
      5.47050  0.000108337
      5.47232  0.000105186
      5.47415  0.000106977
      5.47598  0.000105697
      5.47780  0.000101153
      5.47962  0.000107778
      5.48145  0.000105349
      5.48327  0.000103410
      5.48510  0.000103878
      5.48694  0.000103863
      5.48877  0.000109897
      5.49060  0.000102475
      5.49242  0.000105669
      5.49425  0.000103958
      5.49609  0.000105597
      5.49792  0.000105441
      5.49941  0.000101498
