wavelength       flux
  microns         mJy
      
     0.800134  1.69891e-08
     0.800401  1.72641e-08
     0.800668  1.72183e-08
     0.800935  1.74069e-08
     0.801202  1.75140e-08
     0.801469  1.75721e-08
     0.801736  1.76704e-08
     0.802003  1.77763e-08
     0.802270  1.77357e-08
     0.802538  1.78721e-08
     0.802805  1.75623e-08
     0.803073  1.80128e-08
     0.803340  1.81157e-08
     0.803608  1.81800e-08
     0.803876  1.82868e-08
     0.804145  1.83326e-08
     0.804412  1.84598e-08
     0.804680  1.85255e-08
     0.804949  1.79828e-08
     0.805217  1.87104e-08
     0.805485  1.88168e-08
     0.805754  1.87734e-08
     0.806022  1.89733e-08
     0.806291  1.90604e-08
     0.806560  1.91168e-08
     0.806829  1.90963e-08
     0.807098  1.88563e-08
     0.807367  1.93090e-08
     0.807636  1.90493e-08
     0.807905  1.95315e-08
     0.808174  1.96632e-08
     0.808444  1.97449e-08
     0.808713  1.97022e-08
     0.808983  1.99454e-08
     0.809253  2.00001e-08
     0.809523  2.00142e-08
     0.809792  2.02283e-08
     0.810062  2.02906e-08
     0.810332  2.03314e-08
     0.810602  2.04637e-08
     0.810872  2.05750e-08
     0.811143  2.06706e-08
     0.811413  2.06137e-08
     0.811683  2.08296e-08
     0.811954  2.06601e-08
     0.812225  2.09807e-08
     0.812495  2.11100e-08
     0.812766  2.10646e-08
     0.813037  2.13514e-08
     0.813308  2.13917e-08
     0.813579  2.14672e-08
     0.813850  2.16277e-08
     0.814122  2.17020e-08
     0.814393  2.17396e-08
     0.814664  2.19110e-08
     0.814936  2.20389e-08
     0.815208  2.21185e-08
     0.815479  2.22591e-08
     0.815751  2.23139e-08
     0.816023  2.23581e-08
     0.816296  2.22570e-08
     0.816567  2.25539e-08
     0.816839  2.26874e-08
     0.817112  2.27767e-08
     0.817384  2.28525e-08
     0.817657  2.29583e-08
     0.817930  2.29820e-08
     0.818202  2.28892e-08
     0.818475  1.84505e-08
     0.818747  2.22738e-08
     0.819020  2.31379e-08
     0.819293  2.32458e-08
     0.819567  1.99691e-08
     0.819840  1.94689e-08
     0.820113  2.34482e-08
     0.820386  2.38158e-08
     0.820660  2.36991e-08
     0.820933  2.40856e-08
     0.821207  2.42842e-08
     0.821480  2.43256e-08
     0.821754  2.45473e-08
     0.822028  2.45943e-08
     0.822302  2.42689e-08
     0.822576  2.48849e-08
     0.822850  2.49881e-08
     0.823125  2.51059e-08
     0.823399  2.51442e-08
     0.823674  2.53764e-08
     0.823949  2.54909e-08
     0.824223  2.53419e-08
     0.824498  2.55343e-08
     0.824773  2.58114e-08
     0.825048  2.59213e-08
     0.825323  2.60305e-08
     0.825598  2.60894e-08
     0.825873  2.60273e-08
     0.826148  2.63909e-08
     0.826423  2.64782e-08
     0.826699  2.65356e-08
     0.826974  2.66557e-08
     0.827250  2.67897e-08
     0.827527  2.69419e-08
     0.827802  2.70923e-08
     0.828077  2.71777e-08
     0.828353  2.72925e-08
     0.828630  2.74025e-08
     0.828906  2.76072e-08
     0.829183  2.75305e-08
     0.829459  2.77291e-08
     0.829735  2.79388e-08
     0.830012  2.80590e-08
     0.830289  2.81785e-08
     0.830565  2.82875e-08
     0.830842  2.80054e-08
     0.831119  2.84803e-08
     0.831396  2.86430e-08
     0.831674  2.88371e-08
     0.831951  2.89597e-08
     0.832228  2.90869e-08
     0.832505  2.90855e-08
     0.832783  2.80617e-08
     0.833061  2.68154e-08
     0.833338  2.95563e-08
     0.833616  2.90160e-08
     0.833893  2.98055e-08
     0.834171  2.99877e-08
     0.834449  3.01331e-08
     0.834728  3.02634e-08
     0.835006  3.00890e-08
     0.835284  3.05876e-08
     0.835563  2.98933e-08
     0.835841  3.08104e-08
     0.836120  3.10055e-08
     0.836399  3.08922e-08
     0.836678  2.86821e-08
     0.836957  3.14112e-08
     0.837235  3.13908e-08
     0.837515  3.16287e-08
     0.837794  3.16744e-08
     0.838073  2.93155e-08
     0.838353  2.99274e-08
     0.838632  2.98412e-08
     0.838911  2.82247e-08
     0.839191  3.13895e-08
     0.839471  3.26331e-08
     0.839750  3.25380e-08
     0.840030  3.08075e-08
     0.840310  3.30198e-08
     0.840590  3.32795e-08
     0.840870  3.33506e-08
     0.841151  3.34758e-08
     0.841431  3.04070e-08
     0.841712  3.37674e-08
     0.841992  3.34056e-08
     0.842273  3.40601e-08
     0.842554  3.36008e-08
     0.842835  3.01964e-08
     0.843116  3.41950e-08
     0.843397  3.45210e-08
     0.843678  2.61420e-08
     0.843959  3.32620e-08
     0.844240  3.45752e-08
     0.844522  3.49766e-08
     0.844803  3.52827e-08
     0.845085  3.55490e-08
     0.845366  3.50352e-08
     0.845648  3.54663e-08
     0.845930  3.56004e-08
     0.846213  3.59118e-08
     0.846494  3.62274e-08
     0.846776  3.61919e-08
     0.847058  3.29092e-08
     0.847341  3.65016e-08
     0.847623  3.68358e-08
     0.847906  3.70876e-08
     0.848189  3.72228e-08
     0.848471  3.73026e-08
     0.848754  3.75778e-08
     0.849037  3.77593e-08
     0.849320  3.78372e-08
     0.849603  3.77143e-08
     0.849886  3.41861e-08
     0.850170  3.31705e-08
     0.850453  3.83799e-08
     0.850736  3.87252e-08
     0.851020  3.87535e-08
     0.851304  3.91044e-08
     0.851587  3.69930e-08
     0.851871  3.88609e-08
     0.852156  3.77529e-08
     0.852439  3.98000e-08
     0.852723  4.00131e-08
     0.853008  4.01041e-08
     0.853292  3.99694e-08
     0.853577  4.00472e-08
     0.853861  3.95918e-08
     0.854146  3.68068e-08
     0.854431  2.52948e-08
     0.854715  3.67241e-08
     0.855000  3.94898e-08
     0.855285  4.11798e-08
     0.855570  4.17498e-08
     0.855856  4.20828e-08
     0.856141  4.22829e-08
     0.856426  4.26587e-08
     0.856712  4.27509e-08
     0.856997  4.30880e-08
     0.857283  4.31069e-08
     0.857569  4.34359e-08
     0.857854  4.37015e-08
     0.858140  4.38017e-08
     0.858426  4.37066e-08
     0.858712  4.43990e-08
     0.858999  4.46265e-08
     0.859285  4.48151e-08
     0.859572  4.49753e-08
     0.859858  4.52382e-08
     0.860145  4.55002e-08
     0.860432  4.56106e-08
     0.860718  4.58140e-08
     0.861005  4.60676e-08
     0.861292  4.51213e-08
     0.861579  4.62521e-08
     0.861867  4.66245e-08
     0.862154  4.68731e-08
     0.862441  4.66853e-08
     0.862729  4.73329e-08
     0.863016  4.76977e-08
     0.863304  4.77815e-08
     0.863591  4.80219e-08
     0.863880  4.81767e-08
     0.864167  4.83915e-08
     0.864455  4.86763e-08
     0.864743  4.89182e-08
     0.865032  4.90449e-08
     0.865321  4.90946e-08
     0.865609  4.91843e-08
     0.865897  4.87453e-08
     0.866186  4.57580e-08
     0.866475  3.27789e-08
     0.866764  4.72641e-08
     0.867053  4.98461e-08
     0.867342  5.05559e-08
     0.867631  4.76830e-08
     0.867920  4.96314e-08
     0.868209  5.16397e-08
     0.868499  4.94225e-08
     0.868788  5.15843e-08
     0.869078  4.35491e-08
     0.869367  5.02114e-08
     0.869657  5.16571e-08
     0.869947  5.27268e-08
     0.870237  5.27918e-08
     0.870528  5.31385e-08
     0.870817  5.34148e-08
     0.871107  5.39227e-08
     0.871398  5.33952e-08
     0.871688  5.36968e-08
     0.871979  5.39826e-08
     0.872269  5.44647e-08
     0.872560  5.47536e-08
     0.872851  5.51778e-08
     0.873142  5.62227e-08
     0.873433  5.54027e-08
     0.873724  5.45071e-08
     0.874015  5.58129e-08
     0.874307  5.65226e-08
     0.874599  5.72783e-08
     0.874890  5.71564e-08
     0.875181  5.73720e-08
     0.875473  5.74730e-08
     0.875766  5.80861e-08
     0.876058  5.71605e-08
     0.876350  5.89281e-08
     0.876641  5.85941e-08
     0.876933  5.74553e-08
     0.877225  5.99735e-08
     0.877518  5.93692e-08
     0.877810  6.04530e-08
     0.878103  5.94008e-08
     0.878396  6.05901e-08
     0.878689  6.12274e-08
     0.878982  6.12558e-08
     0.879275  6.18029e-08
     0.879568  6.16459e-08
     0.879861  6.22163e-08
     0.880154  6.25966e-08
     0.880448  6.07288e-08
     0.880741  5.96655e-08
     0.881034  5.53851e-08
     0.881328  6.30232e-08
     0.881622  6.39054e-08
     0.881916  6.44254e-08
     0.882209  6.47154e-08
     0.882504  6.21342e-08
     0.882798  5.96113e-08
     0.883092  6.48471e-08
     0.883386  6.61735e-08
     0.883681  6.64575e-08
     0.883976  6.48585e-08
     0.884270  6.67021e-08
     0.884565  6.66159e-08
     0.884860  6.72537e-08
     0.885155  6.73268e-08
     0.885450  6.84601e-08
     0.885745  6.84898e-08
     0.886041  6.79475e-08
     0.886336  6.88815e-08
     0.886631  6.82634e-08
     0.886927  6.89671e-08
     0.887222  6.85606e-08
     0.887518  6.91534e-08
     0.887814  6.98436e-08
     0.888110  7.06996e-08
     0.888406  7.10720e-08
     0.888702  7.06974e-08
     0.888999  7.14005e-08
     0.889295  7.13894e-08
     0.889591  7.14506e-08
     0.889887  7.23567e-08
     0.890184  7.28390e-08
     0.890481  7.33508e-08
     0.890778  7.36395e-08
     0.891075  7.42022e-08
     0.891372  7.41725e-08
     0.891669  7.47123e-08
     0.891966  7.48435e-08
     0.892263  7.49212e-08
     0.892561  7.59596e-08
     0.892859  7.56907e-08
     0.893156  7.57822e-08
     0.893453  7.71211e-08
     0.893752  7.73075e-08
     0.894049  7.75576e-08
     0.894347  7.75443e-08
     0.894645  7.80595e-08
     0.894943  7.82099e-08
     0.895242  7.91878e-08
     0.895540  7.91508e-08
     0.895839  8.02104e-08
     0.896138  8.00477e-08
     0.896436  8.05245e-08
     0.896735  8.03338e-08
     0.897034  8.11566e-08
     0.897333  8.18338e-08
     0.897632  8.21947e-08
     0.897931  8.23651e-08
     0.898231  8.21926e-08
     0.898530  8.37548e-08
     0.898829  8.37911e-08
     0.899129  8.30923e-08
     0.899429  8.46493e-08
     0.899728  8.53016e-08
     0.900028  8.40470e-08
     0.900328  8.04001e-08
     0.900629  8.67171e-08
     0.900929  8.69082e-08
     0.901230  8.56956e-08
     0.901530  8.73271e-08
     0.901830  8.69587e-08
     0.902131  8.77930e-08
     0.902431  8.77596e-08
     0.902732  8.77288e-08
     0.903033  8.68339e-08
     0.903334  8.99832e-08
     0.903636  9.01718e-08
     0.903937  9.11272e-08
     0.904238  9.05727e-08
     0.904539  9.15754e-08
     0.904841  9.23983e-08
     0.905142  9.31074e-08
     0.905445  9.14867e-08
     0.905746  9.21861e-08
     0.906047  9.30785e-08
     0.906350  9.35450e-08
     0.906652  9.44718e-08
     0.906954  9.51530e-08
     0.907256  9.46093e-08
     0.907559  9.56844e-08
     0.907861  9.58801e-08
     0.908164  9.75198e-08
     0.908467  9.73305e-08
     0.908770  9.62630e-08
     0.909073  9.42964e-08
     0.909376  9.63548e-08
     0.909679  9.86352e-08
     0.909982  9.99914e-08
     0.910285  9.84754e-08
     0.910589  1.00792e-07
     0.910892  9.94190e-08
     0.911196  1.00991e-07
     0.911500  1.03105e-07
     0.911803  1.02917e-07
     0.912107  1.02984e-07
     0.912411  1.03863e-07
     0.912715  1.03799e-07
     0.913020  1.04819e-07
     0.913324  1.05573e-07
     0.913628  1.05615e-07
     0.913933  1.06780e-07
     0.914238  1.05293e-07
     0.914542  1.07869e-07
     0.914847  1.08524e-07
     0.915152  1.07349e-07
     0.915457  1.08659e-07
     0.915762  1.09683e-07
     0.916068  1.10069e-07
     0.916373  1.10912e-07
     0.916678  1.11237e-07
     0.916984  1.11326e-07
     0.917290  1.12358e-07
     0.917596  1.11826e-07
     0.917901  1.12728e-07
     0.918207  1.13717e-07
     0.918513  1.14706e-07
     0.918819  1.15015e-07
     0.919126  1.16386e-07
     0.919432  1.16133e-07
     0.919739  1.16907e-07
     0.920045  1.17087e-07
     0.920352  1.17591e-07
     0.920659  1.18783e-07
     0.920966  1.17529e-07
     0.921273  1.19181e-07
     0.921580  1.20779e-07
     0.921887  1.21265e-07
     0.922194  1.19628e-07
     0.922502  1.21466e-07
     0.922809  1.22102e-07
     0.923117  1.22879e-07
     0.923424  1.22842e-07
     0.923732  1.23708e-07
     0.924040  1.25042e-07
     0.924348  1.25588e-07
     0.924656  1.25982e-07
     0.924964  1.25582e-07
     0.925273  1.26711e-07
     0.925581  1.27073e-07
     0.925890  1.27296e-07
     0.926198  1.28322e-07
     0.926507  1.28868e-07
     0.926816  1.29844e-07
     0.927125  1.30553e-07
     0.927434  1.31545e-07
     0.927743  1.32490e-07
     0.928052  1.30872e-07
     0.928362  1.32385e-07
     0.928671  1.33939e-07
     0.928981  1.34469e-07
     0.929290  1.31421e-07
     0.929600  1.34736e-07
     0.929910  1.35606e-07
     0.930220  1.35693e-07
     0.930530  1.38009e-07
     0.930840  1.37244e-07
     0.931150  1.39406e-07
     0.931461  1.39636e-07
     0.931771  1.40172e-07
     0.932082  1.40452e-07
     0.932393  1.41473e-07
     0.932703  1.41762e-07
     0.933014  1.42171e-07
     0.933325  1.44035e-07
     0.933636  1.43685e-07
     0.933948  1.45091e-07
     0.934259  1.45819e-07
     0.934570  1.46004e-07
     0.934882  1.46870e-07
     0.935193  1.47264e-07
     0.935506  1.48064e-07
     0.935817  1.48962e-07
     0.936129  1.49739e-07
     0.936441  1.50039e-07
     0.936753  1.51295e-07
     0.937065  1.52284e-07
     0.937378  1.53177e-07
     0.937690  1.54404e-07
     0.938003  1.54367e-07
     0.938316  1.54142e-07
     0.938628  1.56451e-07
     0.938941  1.57029e-07
     0.939254  1.56194e-07
     0.939567  1.57783e-07
     0.939880  1.58154e-07
     0.940194  1.59504e-07
     0.940507  1.59561e-07
     0.940820  1.61150e-07
     0.941134  1.62438e-07
     0.941448  1.62840e-07
     0.941761  1.62548e-07
     0.942075  1.64692e-07
     0.942389  1.65198e-07
     0.942704  1.66135e-07
     0.943018  1.67381e-07
     0.943332  1.68436e-07
     0.943647  1.68929e-07
     0.943962  1.68748e-07
     0.944276  1.70040e-07
     0.944591  1.70317e-07
     0.944906  1.68309e-07
     0.945221  1.73387e-07
     0.945536  1.74376e-07
     0.945851  1.73624e-07
     0.946166  1.76146e-07
     0.946481  1.75541e-07
     0.946797  1.76827e-07
     0.947113  1.78281e-07
     0.947428  1.78850e-07
     0.947744  1.80537e-07
     0.948060  1.81739e-07
     0.948376  1.79676e-07
     0.948693  1.83553e-07
     0.949008  1.83590e-07
     0.949325  1.85158e-07
     0.949641  1.85591e-07
     0.949958  1.86630e-07
     0.950274  1.86872e-07
     0.950591  1.88257e-07
     0.950908  1.89080e-07
     0.951225  1.89479e-07
     0.951542  1.90190e-07
     0.951859  1.91716e-07
     0.952177  1.93053e-07
     0.952494  1.94603e-07
     0.952811  1.95275e-07
     0.953129  1.95613e-07
     0.953447  1.96949e-07
     0.953764  1.96838e-07
     0.954082  1.97824e-07
     0.954400  1.99401e-07
     0.954718  1.89996e-07
     0.955037  1.96430e-07
     0.955355  2.02350e-07
     0.955674  2.03724e-07
     0.955992  2.04039e-07
     0.956311  2.04885e-07
     0.956630  2.06531e-07
     0.956949  2.07404e-07
     0.957268  2.08552e-07
     0.957587  2.07208e-07
     0.957906  2.10195e-07
     0.958225  2.12073e-07
     0.958544  2.13818e-07
     0.958864  2.14738e-07
     0.959183  2.14633e-07
     0.959503  2.16226e-07
     0.959823  2.17023e-07
     0.960144  1.99610e-07
     0.960463  2.17030e-07
     0.960783  2.19621e-07
     0.961103  2.21176e-07
     0.961424  2.22665e-07
     0.961744  2.23701e-07
     0.962065  2.24829e-07
     0.962386  2.26474e-07
     0.962707  2.28232e-07
     0.963028  2.27306e-07
     0.963349  2.29243e-07
     0.963670  2.29986e-07
     0.963991  1.92421e-07
     0.964312  2.24562e-07
     0.964633  2.32848e-07
     0.964956  2.14545e-07
     0.965277  2.33294e-07
     0.965598  2.33523e-07
     0.965921  2.38033e-07
     0.966242  2.38794e-07
     0.966564  2.38925e-07
     0.966886  2.41216e-07
     0.967209  2.38926e-07
     0.967532  2.41946e-07
     0.967854  2.07274e-07
     0.968176  2.45570e-07
     0.968499  2.46032e-07
     0.968822  2.48842e-07
     0.969145  2.32740e-07
     0.969468  2.51555e-07
     0.969791  2.52989e-07
     0.970114  2.54142e-07
     0.970438  2.54295e-07
     0.970761  2.23459e-07
     0.971085  2.55562e-07
     0.971408  2.58427e-07
     0.971732  2.60477e-07
     0.972057  2.49402e-07
     0.972380  2.62877e-07
     0.972704  2.62460e-07
     0.973028  2.36836e-07
     0.973353  2.65663e-07
     0.973677  2.66448e-07
     0.974002  2.67210e-07
     0.974327  2.70459e-07
     0.974652  2.45256e-07
     0.974976  2.69504e-07
     0.975302  2.76367e-07
     0.975627  2.75581e-07
     0.975952  2.77511e-07
     0.976277  2.79627e-07
     0.976602  2.81664e-07
     0.976928  2.82190e-07
     0.977253  2.62095e-07
     0.977579  2.84780e-07
     0.977905  2.86282e-07
     0.978231  2.87010e-07
     0.978557  2.52148e-07
     0.978884  2.71119e-07
     0.979210  2.83251e-07
     0.979536  2.92722e-07
     0.979863  2.94433e-07
     0.980190  2.96479e-07
     0.980516  2.98615e-07
     0.980843  2.99571e-07
     0.981170  3.01837e-07
     0.981497  3.01449e-07
     0.981824  3.04317e-07
     0.982152  3.06287e-07
     0.982479  3.06529e-07
     0.982807  3.08633e-07
     0.983134  3.09950e-07
     0.983461  3.07616e-07
     0.983790  3.10890e-07
     0.984118  3.15434e-07
     0.984445  3.16783e-07
     0.984773  3.18344e-07
     0.985101  3.19735e-07
     0.985430  3.21706e-07
     0.985758  3.24687e-07
     0.986087  3.25229e-07
     0.986416  3.26140e-07
     0.986745  3.27807e-07
     0.987074  3.28133e-07
     0.987403  3.30941e-07
     0.987732  3.33958e-07
     0.988061  3.35750e-07
     0.988391  3.36870e-07
     0.988720  3.39577e-07
     0.989049  3.39814e-07
     0.989379  3.42972e-07
     0.989708  3.44388e-07
     0.990038  3.30046e-07
     0.990368  3.38869e-07
     0.990699  3.37496e-07
     0.991029  3.24784e-07
     0.991359  3.36175e-07
     0.991690  3.25976e-07
     0.992020  3.33057e-07
     0.992351  3.46388e-07
     0.992682  3.36539e-07
     0.993013  3.44443e-07
     0.993344  3.55984e-07
     0.993675  3.41296e-07
     0.994006  3.60653e-07
     0.994337  3.62271e-07
     0.994669  3.56531e-07
     0.995000  3.69607e-07
     0.995332  3.65995e-07
     0.995664  3.69668e-07
     0.995995  3.67768e-07
     0.996327  3.67476e-07
     0.996660  3.79645e-07
     0.996992  3.78313e-07
     0.997324  3.70709e-07
     0.997657  3.70759e-07
     0.997989  3.83220e-07
     0.998322  3.87655e-07
     0.998655  3.74406e-07
     0.998988  3.85477e-07
     0.999321  3.78970e-07
     0.999654  3.95366e-07
     0.999960  3.83969e-07
      1.00032  3.98790e-07
      1.00065  3.97564e-07
      1.00099  4.01011e-07
      1.00132  3.89259e-07
      1.00165  4.07239e-07
      1.00199  4.10477e-07
      1.00232  4.02267e-07
      1.00266  4.13874e-07
      1.00299  4.12328e-07
      1.00333  4.18160e-07
      1.00366  4.12878e-07
      1.00399  4.14348e-07
      1.00433  4.22546e-07
      1.00466  4.26764e-07
      1.00500  4.25228e-07
      1.00533  4.14849e-07
      1.00567  4.17580e-07
      1.00600  4.19803e-07
      1.00634  4.24746e-07
      1.00668  4.26311e-07
      1.00701  4.43842e-07
      1.00735  4.38307e-07
      1.00768  4.44476e-07
      1.00802  4.49324e-07
      1.00835  4.51660e-07
      1.00869  4.51813e-07
      1.00903  4.53646e-07
      1.00936  4.50802e-07
      1.00970  4.55673e-07
      1.01004  4.62074e-07
      1.01037  4.68896e-07
      1.01071  4.66531e-07
      1.01105  4.64269e-07
      1.01138  4.65566e-07
      1.01172  4.74534e-07
      1.01206  4.64077e-07
      1.01239  4.82309e-07
      1.01273  4.79568e-07
      1.01307  4.82322e-07
      1.01341  4.88914e-07
      1.01375  4.77380e-07
      1.01408  4.81412e-07
      1.01442  4.92015e-07
      1.01476  4.91260e-07
      1.01510  4.91181e-07
      1.01544  5.04257e-07
      1.01577  4.94137e-07
      1.01611  5.01676e-07
      1.01645  5.01975e-07
      1.01679  5.08412e-07
      1.01713  5.12822e-07
      1.01747  5.08553e-07
      1.01781  5.25226e-07
      1.01815  5.13358e-07
      1.01849  5.15978e-07
      1.01883  5.16797e-07
      1.01917  5.30180e-07
      1.01951  5.25018e-07
      1.01985  5.37621e-07
      1.02018  5.29595e-07
      1.02052  5.40343e-07
      1.02086  5.42273e-07
      1.02120  5.51156e-07
      1.02155  5.35638e-07
      1.02189  5.48181e-07
      1.02223  5.40268e-07
      1.02257  5.55123e-07
      1.02291  5.52105e-07
      1.02325  5.62346e-07
      1.02359  5.58059e-07
      1.02393  5.68306e-07
      1.02427  5.77236e-07
      1.02461  5.80955e-07
      1.02496  5.73359e-07
      1.02530  5.69874e-07
      1.02564  5.65304e-07
      1.02598  5.75651e-07
      1.02632  5.65268e-07
      1.02667  5.66159e-07
      1.02701  5.88607e-07
      1.02735  5.86219e-07
      1.02769  5.84214e-07
      1.02804  5.93201e-07
      1.02838  5.80742e-07
      1.02872  5.94144e-07
      1.02906  6.06099e-07
      1.02941  5.95940e-07
      1.02975  6.17069e-07
      1.03009  6.10550e-07
      1.03044  5.98895e-07
      1.03078  6.28294e-07
      1.03112  6.28665e-07
      1.03147  6.32118e-07
      1.03181  6.31247e-07
      1.03216  6.27679e-07
      1.03250  6.26297e-07
      1.03284  6.39649e-07
      1.03319  6.39160e-07
      1.03353  6.47640e-07
      1.03388  6.40266e-07
      1.03422  6.42972e-07
      1.03456  5.62467e-07
      1.03491  6.36405e-07
      1.03525  6.47232e-07
      1.03560  6.74148e-07
      1.03595  6.64309e-07
      1.03629  6.82958e-07
      1.03664  6.75615e-07
      1.03698  6.75563e-07
      1.03733  6.90013e-07
      1.03767  6.97068e-07
      1.03802  6.80788e-07
      1.03837  6.79763e-07
      1.03871  7.07659e-07
      1.03906  6.96364e-07
      1.03940  6.95450e-07
      1.03975  6.93444e-07
      1.04010  6.67285e-07
      1.04044  7.15234e-07
      1.04079  7.30099e-07
      1.04114  7.27983e-07
      1.04148  7.02243e-07
      1.04183  7.21994e-07
      1.04218  7.37034e-07
      1.04253  7.29796e-07
      1.04287  7.20085e-07
      1.04322  7.30023e-07
      1.04357  7.48559e-07
      1.04392  7.54650e-07
      1.04427  7.55370e-07
      1.04461  7.64454e-07
      1.04496  7.57932e-07
      1.04531  7.67590e-07
      1.04566  7.77755e-07
      1.04601  7.76277e-07
      1.04636  7.80180e-07
      1.04670  7.71844e-07
      1.04705  7.74952e-07
      1.04740  7.70786e-07
      1.04775  7.99098e-07
      1.04810  7.90820e-07
      1.04845  7.91419e-07
      1.04880  8.05133e-07
      1.04915  8.10282e-07
      1.04950  8.16367e-07
      1.04985  7.66614e-07
      1.05020  8.24242e-07
      1.05055  8.23983e-07
      1.05090  8.28558e-07
      1.05125  8.22756e-07
      1.05160  8.17069e-07
      1.05195  8.42399e-07
      1.05230  8.24383e-07
      1.05265  8.36795e-07
      1.05300  8.60626e-07
      1.05335  8.59270e-07
      1.05370  8.72145e-07
      1.05405  8.55196e-07
      1.05441  8.59160e-07
      1.05476  8.83848e-07
      1.05511  8.72953e-07
      1.05546  8.80193e-07
      1.05581  8.75193e-07
      1.05616  8.83798e-07
      1.05652  8.97713e-07
      1.05687  8.94012e-07
      1.05722  8.89983e-07
      1.05757  9.00679e-07
      1.05793  9.13661e-07
      1.05828  9.19078e-07
      1.05863  8.71204e-07
      1.05898  9.15201e-07
      1.05934  9.24913e-07
      1.05969  9.31345e-07
      1.06004  9.43137e-07
      1.06040  9.41342e-07
      1.06075  9.23486e-07
      1.06110  9.36029e-07
      1.06146  9.58924e-07
      1.06181  9.63168e-07
      1.06217  9.56119e-07
      1.06252  9.68544e-07
      1.06287  9.64807e-07
      1.06323  9.89522e-07
      1.06358  9.82038e-07
      1.06394  9.83865e-07
      1.06429  9.93609e-07
      1.06465  9.92277e-07
      1.06500  1.00074e-06
      1.06536  1.00124e-06
      1.06571  9.81430e-07
      1.06607  1.02108e-06
      1.06642  9.63317e-07
      1.06678  1.02291e-06
      1.06713  1.00799e-06
      1.06749  1.03886e-06
      1.06784  1.00699e-06
      1.06820  1.04775e-06
      1.06856  1.03479e-06
      1.06891  1.05031e-06
      1.06927  1.05229e-06
      1.06963  1.05605e-06
      1.06998  1.06733e-06
      1.07034  1.07424e-06
      1.07070  1.05284e-06
      1.07105  1.08359e-06
      1.07141  1.08525e-06
      1.07177  1.09103e-06
      1.07212  1.09092e-06
      1.07248  1.10711e-06
      1.07284  1.05314e-06
      1.07320  1.10908e-06
      1.07355  1.08272e-06
      1.07391  1.12366e-06
      1.07427  1.12768e-06
      1.07463  1.12317e-06
      1.07499  1.14453e-06
      1.07535  1.14183e-06
      1.07570  1.14779e-06
      1.07606  1.13773e-06
      1.07642  1.16209e-06
      1.07678  1.16449e-06
      1.07714  1.16749e-06
      1.07750  1.18544e-06
      1.07786  1.15978e-06
      1.07822  1.19677e-06
      1.07858  1.18898e-06
      1.07894  1.20040e-06
      1.07930  1.20887e-06
      1.07966  1.18928e-06
      1.08001  1.21071e-06
      1.08037  1.22203e-06
      1.08073  1.20346e-06
      1.08109  1.21586e-06
      1.08145  1.21699e-06
      1.08182  1.23158e-06
      1.08218  1.24937e-06
      1.08254  1.25680e-06
      1.08290  1.24366e-06
      1.08326  1.26527e-06
      1.08362  1.27268e-06
      1.08398  1.28635e-06
      1.08434  1.29367e-06
      1.08470  1.27898e-06
      1.08507  1.28821e-06
      1.08543  1.29267e-06
      1.08579  1.28710e-06
      1.08615  1.31546e-06
      1.08651  1.31075e-06
      1.08687  1.32827e-06
      1.08724  1.31981e-06
      1.08760  1.33670e-06
      1.08796  1.34316e-06
      1.08833  1.35870e-06
      1.08869  1.35240e-06
      1.08905  1.33961e-06
      1.08941  1.37708e-06
      1.08978  1.37302e-06
      1.09014  1.38276e-06
      1.09050  1.39460e-06
      1.09087  1.38675e-06
      1.09123  1.37010e-06
      1.09160  1.41473e-06
      1.09196  1.39525e-06
      1.09232  1.41231e-06
      1.09269  1.42083e-06
      1.09305  1.43123e-06
      1.09342  1.43790e-06
      1.09378  1.43813e-06
      1.09414  1.45556e-06
      1.09451  1.46082e-06
      1.09487  1.46729e-06
      1.09524  1.46255e-06
      1.09560  1.46880e-06
      1.09597  1.48284e-06
      1.09633  1.47653e-06
      1.09670  1.48615e-06
      1.09706  1.49884e-06
      1.09743  1.50221e-06
      1.09780  1.49495e-06
      1.09816  1.51424e-06
      1.09853  1.49966e-06
      1.09889  1.53774e-06
      1.09926  1.54746e-06
      1.09963  1.55019e-06
      1.09999  1.54772e-06
      1.10036  1.55602e-06
      1.10073  1.57891e-06
      1.10109  1.56812e-06
      1.10146  1.57231e-06
      1.10183  1.58458e-06
      1.10220  1.60370e-06
      1.10256  1.58346e-06
      1.10293  1.61112e-06
      1.10330  1.61591e-06
      1.10367  1.61698e-06
      1.10403  1.62376e-06
      1.10440  1.64280e-06
      1.10477  1.62440e-06
      1.10514  1.65242e-06
      1.10551  1.65681e-06
      1.10588  1.66170e-06
      1.10624  1.67780e-06
      1.10661  1.68708e-06
      1.10698  1.66744e-06
      1.10735  1.69573e-06
      1.10772  1.70701e-06
      1.10809  1.70213e-06
      1.10846  1.71954e-06
      1.10883  1.72875e-06
      1.10920  1.72662e-06
      1.10957  1.74031e-06
      1.10994  1.73886e-06
      1.11031  1.75549e-06
      1.11068  1.76250e-06
      1.11105  1.75833e-06
      1.11142  1.77737e-06
      1.11179  1.78375e-06
      1.11216  1.77948e-06
      1.11253  1.78265e-06
      1.11290  1.81862e-06
      1.11327  1.81546e-06
      1.11364  1.81640e-06
      1.11401  1.82268e-06
      1.11439  1.84853e-06
      1.11476  1.86083e-06
      1.11513  1.83706e-06
      1.11550  1.86670e-06
      1.11587  1.86526e-06
      1.11624  1.88436e-06
      1.11662  1.88588e-06
      1.11699  1.90684e-06
      1.11736  1.90022e-06
      1.11773  1.90682e-06
      1.11811  1.92970e-06
      1.11848  1.94092e-06
      1.11885  1.94233e-06
      1.11922  1.92343e-06
      1.11960  1.95612e-06
      1.11997  1.94827e-06
      1.12034  1.97529e-06
      1.12072  1.97011e-06
      1.12109  1.98117e-06
      1.12146  1.98705e-06
      1.12184  2.01259e-06
      1.12221  2.00175e-06
      1.12259  2.01415e-06
      1.12296  2.03382e-06
      1.12333  2.04487e-06
      1.12371  2.04710e-06
      1.12408  2.07162e-06
      1.12446  2.07090e-06
      1.12483  2.04994e-06
      1.12521  2.07738e-06
      1.12558  2.01900e-06
      1.12596  2.06719e-06
      1.12633  2.10895e-06
      1.12671  2.13032e-06
      1.12708  2.12832e-06
      1.12746  2.13773e-06
      1.12784  2.12121e-06
      1.12821  2.15650e-06
      1.12859  2.17877e-06
      1.12896  2.16165e-06
      1.12934  2.17917e-06
      1.12972  2.18932e-06
      1.13009  2.17977e-06
      1.13047  2.18768e-06
      1.13085  2.23112e-06
      1.13122  2.22486e-06
      1.13160  2.24127e-06
      1.13198  2.25503e-06
      1.13236  2.25499e-06
      1.13273  2.27264e-06
      1.13311  2.27903e-06
      1.13349  2.28149e-06
      1.13387  2.30313e-06
      1.13424  2.29273e-06
      1.13462  2.31231e-06
      1.13500  2.30715e-06
      1.13538  2.34471e-06
      1.13576  2.34752e-06
      1.13614  2.33839e-06
      1.13651  2.36419e-06
      1.13689  2.36154e-06
      1.13727  2.37624e-06
      1.13765  2.35383e-06
      1.13803  2.38849e-06
      1.13841  2.15250e-06
      1.13879  2.40396e-06
      1.13917  2.43134e-06
      1.13955  2.41870e-06
      1.13993  2.45338e-06
      1.14031  2.43311e-06
      1.14069  2.11333e-06
      1.14107  2.45927e-06
      1.14145  2.49654e-06
      1.14183  2.50741e-06
      1.14221  2.51483e-06
      1.14259  2.45684e-06
      1.14297  2.53112e-06
      1.14335  2.54955e-06
      1.14373  2.55663e-06
      1.14411  2.49248e-06
      1.14450  2.57151e-06
      1.14488  2.58465e-06
      1.14526  2.59299e-06
      1.14564  2.59292e-06
      1.14602  2.63088e-06
      1.14641  2.60839e-06
      1.14679  2.64477e-06
      1.14717  2.65083e-06
      1.14755  2.65412e-06
      1.14793  2.66066e-06
      1.14832  2.67295e-06
      1.14870  2.68395e-06
      1.14908  2.72432e-06
      1.14947  2.71456e-06
      1.14985  2.73290e-06
      1.15023  2.75759e-06
      1.15061  2.75651e-06
      1.15100  2.75359e-06
      1.15138  2.78621e-06
      1.15177  2.78797e-06
      1.15215  2.79867e-06
      1.15253  2.81046e-06
      1.15292  2.82797e-06
      1.15330  2.83734e-06
      1.15369  2.84159e-06
      1.15407  2.84284e-06
      1.15446  2.85782e-06
      1.15484  2.87500e-06
      1.15523  2.88554e-06
      1.15561  2.89799e-06
      1.15600  2.90988e-06
      1.15638  2.93363e-06
      1.15677  2.92121e-06
      1.15715  2.94271e-06
      1.15754  2.97117e-06
      1.15792  2.96896e-06
      1.15831  2.98304e-06
      1.15870  2.99803e-06
      1.15908  3.01127e-06
      1.15947  3.00980e-06
      1.15986  2.94755e-06
      1.16024  3.04769e-06
      1.16063  3.05210e-06
      1.16102  2.88402e-06
      1.16140  3.02377e-06
      1.16179  3.09857e-06
      1.16218  3.10830e-06
      1.16256  3.11191e-06
      1.16295  3.13502e-06
      1.16334  3.15781e-06
      1.16373  3.13929e-06
      1.16411  3.01550e-06
      1.16450  3.19217e-06
      1.16489  3.19867e-06
      1.16528  3.20645e-06
      1.16567  3.20031e-06
      1.16606  3.23182e-06
      1.16645  3.25299e-06
      1.16683  3.27095e-06
      1.16722  3.27145e-06
      1.16761  3.28482e-06
      1.16800  3.29673e-06
      1.16839  3.31377e-06
      1.16878  3.31876e-06
      1.16917  3.11721e-06
      1.16956  3.30245e-06
      1.16995  3.36959e-06
      1.17034  3.38563e-06
      1.17073  3.39535e-06
      1.17112  3.40391e-06
      1.17151  3.41936e-06
      1.17190  3.42118e-06
      1.17229  3.46226e-06
      1.17268  3.45554e-06
      1.17307  3.48086e-06
      1.17347  3.49829e-06
      1.17386  3.45980e-06
      1.17425  3.52760e-06
      1.17464  3.53159e-06
      1.17503  3.53981e-06
      1.17542  3.54073e-06
      1.17581  3.57218e-06
      1.17621  3.58658e-06
      1.17660  3.59844e-06
      1.17699  3.59359e-06
      1.17738  3.54281e-06
      1.17778  3.46618e-06
      1.17817  3.63915e-06
      1.17856  3.49443e-06
      1.17895  3.68202e-06
      1.17935  3.68206e-06
      1.17974  3.71943e-06
      1.18013  3.69632e-06
      1.18053  3.74513e-06
      1.18092  3.75838e-06
      1.18131  3.75678e-06
      1.18171  3.77094e-06
      1.18210  3.80707e-06
      1.18249  3.78353e-06
      1.18289  3.66734e-06
      1.18328  3.39599e-06
      1.18368  3.83124e-06
      1.18407  3.86479e-06
      1.18447  3.88066e-06
      1.18486  3.90348e-06
      1.18526  3.88843e-06
      1.18565  3.92802e-06
      1.18605  3.95671e-06
      1.18644  3.96508e-06
      1.18684  3.96526e-06
      1.18723  3.99499e-06
      1.18763  4.01683e-06
      1.18802  4.02694e-06
      1.18842  3.80576e-06
      1.18882  3.73790e-06
      1.18921  4.05860e-06
      1.18961  3.98709e-06
      1.19001  4.09657e-06
      1.19040  4.12169e-06
      1.19080  4.14086e-06
      1.19120  4.13526e-06
      1.19159  4.14162e-06
      1.19199  4.19217e-06
      1.19239  4.19872e-06
      1.19279  4.21426e-06
      1.19318  4.22798e-06
      1.19358  4.23154e-06
      1.19398  4.25352e-06
      1.19438  4.26300e-06
      1.19477  4.29338e-06
      1.19517  4.14123e-06
      1.19557  4.29181e-06
      1.19597  4.23357e-06
      1.19637  4.32841e-06
      1.19677  4.35888e-06
      1.19717  4.35945e-06
      1.19756  3.80671e-06
      1.19796  4.35484e-06
      1.19836  4.41004e-06
      1.19876  4.39041e-06
      1.19916  4.43902e-06
      1.19956  4.42865e-06
      1.19996  4.48580e-06
      1.20036  4.50747e-06
      1.20076  4.53994e-06
      1.20116  4.52994e-06
      1.20156  4.56857e-06
      1.20196  4.56758e-06
      1.20236  4.58905e-06
      1.20276  4.61372e-06
      1.20317  4.61465e-06
      1.20357  4.53239e-06
      1.20397  4.68634e-06
      1.20437  4.69564e-06
      1.20477  4.68403e-06
      1.20517  4.71830e-06
      1.20557  4.74188e-06
      1.20598  4.78194e-06
      1.20638  4.79382e-06
      1.20678  4.76295e-06
      1.20718  4.79720e-06
      1.20758  4.81169e-06
      1.20799  4.84288e-06
      1.20839  4.82332e-06
      1.20879  4.67136e-06
      1.20920  4.84450e-06
      1.20960  4.93167e-06
      1.21000  4.96450e-06
      1.21040  4.96090e-06
      1.21081  4.94901e-06
      1.21121  4.98431e-06
      1.21162  5.00212e-06
      1.21202  5.02769e-06
      1.21242  5.06231e-06
      1.21283  5.07639e-06
      1.21323  5.05862e-06
      1.21364  5.11928e-06
      1.21404  5.15016e-06
      1.21445  5.15207e-06
      1.21485  5.18002e-06
      1.21526  5.20225e-06
      1.21566  5.22543e-06
      1.21607  5.20493e-06
      1.21647  5.22951e-06
      1.21688  5.26099e-06
      1.21728  5.30448e-06
      1.21769  5.32335e-06
      1.21809  5.34040e-06
      1.21850  5.35245e-06
      1.21891  5.36047e-06
      1.21931  5.39035e-06
      1.21972  5.41515e-06
      1.22013  5.39901e-06
      1.22053  5.43483e-06
      1.22094  5.46990e-06
      1.22135  5.46904e-06
      1.22175  5.50360e-06
      1.22216  5.53850e-06
      1.22257  5.53669e-06
      1.22298  5.56984e-06
      1.22338  5.59970e-06
      1.22379  5.57156e-06
      1.22420  5.63819e-06
      1.22461  5.65025e-06
      1.22502  5.67966e-06
      1.22542  5.69318e-06
      1.22583  5.71678e-06
      1.22624  5.75048e-06
      1.22665  5.75033e-06
      1.22706  5.79782e-06
      1.22747  5.74501e-06
      1.22788  5.81618e-06
      1.22829  5.86094e-06
      1.22870  5.86579e-06
      1.22910  5.88285e-06
      1.22951  5.89969e-06
      1.22992  5.92507e-06
      1.23033  5.93778e-06
      1.23074  5.97271e-06
      1.23115  5.98370e-06
      1.23156  6.00507e-06
      1.23198  6.02980e-06
      1.23239  6.04382e-06
      1.23280  6.07439e-06
      1.23321  6.06629e-06
      1.23362  6.09905e-06
      1.23403  6.14861e-06
      1.23444  6.16595e-06
      1.23485  6.18153e-06
      1.23527  6.19150e-06
      1.23568  6.23757e-06
      1.23609  6.23140e-06
      1.23650  6.25825e-06
      1.23691  6.28337e-06
      1.23732  6.32875e-06
      1.23774  6.33527e-06
      1.23815  6.36640e-06
      1.23856  6.40049e-06
      1.23898  6.39574e-06
      1.23939  6.35887e-06
      1.23980  6.44704e-06
      1.24021  6.45894e-06
      1.24063  6.47091e-06
      1.24104  6.44589e-06
      1.24146  6.50728e-06
      1.24187  6.52444e-06
      1.24228  6.52624e-06
      1.24270  6.57244e-06
      1.24311  6.61879e-06
      1.24353  6.53575e-06
      1.24394  6.65963e-06
      1.24435  6.69653e-06
      1.24477  6.72143e-06
      1.24519  6.73809e-06
      1.24560  6.75134e-06
      1.24601  6.81106e-06
      1.24643  6.79509e-06
      1.24685  6.82239e-06
      1.24726  6.86164e-06
      1.24768  6.85527e-06
      1.24809  6.90025e-06
      1.24851  6.94735e-06
      1.24892  6.96299e-06
      1.24934  6.99539e-06
      1.24976  6.99241e-06
      1.25017  6.98114e-06
      1.25059  7.08732e-06
      1.25101  7.09342e-06
      1.25143  7.10407e-06
      1.25184  7.06676e-06
      1.25226  7.16062e-06
      1.25268  6.99834e-06
      1.25309  7.19417e-06
      1.25351  7.22406e-06
      1.25393  7.27345e-06
      1.25435  7.28769e-06
      1.25477  7.30712e-06
      1.25518  7.30414e-06
      1.25560  7.36215e-06
      1.25602  7.36099e-06
      1.25644  7.43585e-06
      1.25686  7.44376e-06
      1.25728  7.42394e-06
      1.25770  7.48418e-06
      1.25812  7.51419e-06
      1.25854  7.56124e-06
      1.25896  7.55068e-06
      1.25937  7.57856e-06
      1.25979  7.60166e-06
      1.26022  7.60522e-06
      1.26064  7.67525e-06
      1.26105  7.70066e-06
      1.26147  7.70908e-06
      1.26189  7.73313e-06
      1.26232  7.77177e-06
      1.26274  7.82442e-06
      1.26316  7.81719e-06
      1.26358  7.84937e-06
      1.26400  7.86622e-06
      1.26442  7.85736e-06
      1.26484  7.92243e-06
      1.26526  7.98125e-06
      1.26569  8.00976e-06
      1.26611  7.99743e-06
      1.26653  8.05792e-06
      1.26695  8.08527e-06
      1.26737  8.02146e-06
      1.26780  8.12158e-06
      1.26822  8.09004e-06
      1.26864  8.19521e-06
      1.26907  8.22026e-06
      1.26949  8.27625e-06
      1.26991  8.25402e-06
      1.27033  8.26833e-06
      1.27076  8.29803e-06
      1.27118  8.36322e-06
      1.27161  8.41050e-06
      1.27203  8.42416e-06
      1.27245  8.47160e-06
      1.27288  8.49461e-06
      1.27330  8.51003e-06
      1.27373  8.53545e-06
      1.27415  8.44191e-06
      1.27458  8.52090e-06
      1.27500  8.55665e-06
      1.27543  8.59621e-06
      1.27585  8.69779e-06
      1.27628  8.71185e-06
      1.27670  8.72910e-06
      1.27713  8.74517e-06
      1.27755  8.77768e-06
      1.27798  8.81328e-06
      1.27840  8.84792e-06
      1.27883  8.86396e-06
      1.27926  8.94874e-06
      1.27968  8.93586e-06
      1.28011  8.97825e-06
      1.28054  8.99053e-06
      1.28096  9.01627e-06
      1.28139  8.99512e-06
      1.28182  8.92282e-06
      1.28225  9.08252e-06
      1.28267  8.61819e-06
      1.28310  9.14191e-06
      1.28353  8.87100e-06
      1.28395  9.21745e-06
      1.28438  9.24774e-06
      1.28481  9.24342e-06
      1.28524  9.00239e-06
      1.28567  9.37781e-06
      1.28610  9.29591e-06
      1.28653  9.39699e-06
      1.28695  9.43048e-06
      1.28738  9.50363e-06
      1.28781  9.48846e-06
      1.28824  9.51065e-06
      1.28867  9.49343e-06
      1.28910  9.60201e-06
      1.28953  9.62092e-06
      1.28996  9.63004e-06
      1.29039  9.21413e-06
      1.29082  9.72718e-06
      1.29125  9.62719e-06
      1.29168  9.75431e-06
      1.29211  9.82295e-06
      1.29254  9.79620e-06
      1.29297  9.84504e-06
      1.29340  9.90485e-06
      1.29384  9.90072e-06
      1.29427  1.00235e-05
      1.29470  9.96036e-06
      1.29513  9.99094e-06
      1.29556  1.00781e-05
      1.29599  1.01137e-05
      1.29642  1.01694e-05
      1.29686  1.01745e-05
      1.29729  1.02173e-05
      1.29772  1.02111e-05
      1.29815  1.02224e-05
      1.29859  1.03217e-05
      1.29902  1.02801e-05
      1.29945  1.04041e-05
      1.29989  1.04136e-05
      1.30032  1.04316e-05
      1.30075  1.04887e-05
      1.30119  1.04589e-05
      1.30162  1.04702e-05
      1.30205  1.05754e-05
      1.30249  1.06433e-05
      1.30292  1.06447e-05
      1.30336  1.06800e-05
      1.30379  1.06703e-05
      1.30423  1.07548e-05
      1.30466  1.08091e-05
      1.30509  1.08309e-05
      1.30553  1.08119e-05
      1.30596  1.09082e-05
      1.30640  1.08953e-05
      1.30684  1.09434e-05
      1.30727  1.09546e-05
      1.30771  1.10482e-05
      1.30814  1.09398e-05
      1.30858  1.10611e-05
      1.30902  1.10916e-05
      1.30945  1.10954e-05
      1.30989  1.11795e-05
      1.31033  1.12411e-05
      1.31076  1.12474e-05
      1.31120  1.13350e-05
      1.31164  1.12781e-05
      1.31207  1.13003e-05
      1.31251  1.01841e-05
      1.31295  1.07516e-05
      1.31339  1.13827e-05
      1.31382  1.13618e-05
      1.31426  1.14918e-05
      1.31470  1.15746e-05
      1.31514  1.13559e-05
      1.31558  1.05390e-05
      1.31602  1.16290e-05
      1.31645  1.17437e-05
      1.31689  1.17742e-05
      1.31733  1.17985e-05
      1.31777  1.18430e-05
      1.31821  1.18715e-05
      1.31865  1.19084e-05
      1.31909  1.20003e-05
      1.31953  1.19745e-05
      1.31997  1.20378e-05
      1.32041  1.20028e-05
      1.32085  1.20737e-05
      1.32129  1.21319e-05
      1.32173  1.21309e-05
      1.32217  1.21150e-05
      1.32261  1.22619e-05
      1.32305  1.23043e-05
      1.32349  1.23013e-05
      1.32393  1.23045e-05
      1.32437  1.24314e-05
      1.32482  1.23903e-05
      1.32526  1.23764e-05
      1.32570  1.24756e-05
      1.32614  1.25134e-05
      1.32658  1.25699e-05
      1.32703  1.23968e-05
      1.32747  1.26421e-05
      1.32791  1.26305e-05
      1.32835  1.26685e-05
      1.32880  1.27227e-05
      1.32924  1.27392e-05
      1.32968  1.24672e-05
      1.33012  1.28425e-05
      1.33057  1.28299e-05
      1.33101  1.28798e-05
      1.33145  1.28452e-05
      1.33190  1.25904e-05
      1.33234  1.20922e-05
      1.33279  1.28389e-05
      1.33323  1.29956e-05
      1.33368  1.30918e-05
      1.33412  1.27638e-05
      1.33457  1.27560e-05
      1.33501  1.23040e-05
      1.33545  1.27286e-05
      1.33590  1.25889e-05
      1.33635  1.30572e-05
      1.33679  1.30012e-05
      1.33724  1.25693e-05
      1.33768  1.30069e-05
      1.33813  1.30236e-05
      1.33857  1.31652e-05
      1.33902  1.33166e-05
      1.33947  1.30017e-05
      1.33991  1.30812e-05
      1.34036  1.32310e-05
      1.34081  1.34967e-05
      1.34125  1.34971e-05
      1.34170  1.31382e-05
      1.34215  1.33455e-05
      1.34259  1.32697e-05
      1.34304  1.33901e-05
      1.34349  1.33337e-05
      1.34394  1.36067e-05
      1.34439  1.36499e-05
      1.34484  1.30674e-05
      1.34528  1.40189e-05
      1.34573  1.38569e-05
      1.34618  1.40964e-05
      1.34663  1.33742e-05
      1.34708  1.39922e-05
      1.34753  1.38246e-05
      1.34798  1.37504e-05
      1.34843  1.38582e-05
      1.34887  1.40390e-05
      1.34932  1.43055e-05
      1.34977  1.42774e-05
      1.35022  1.37848e-05
      1.35067  1.38305e-05
      1.35112  1.44685e-05
      1.35157  1.42409e-05
      1.35203  1.42581e-05
      1.35248  1.42524e-05
      1.35293  1.44942e-05
      1.35338  1.46620e-05
      1.35383  1.43580e-05
      1.35428  1.44428e-05
      1.35473  1.44668e-05
      1.35518  1.44528e-05
      1.35564  1.45037e-05
      1.35609  1.49064e-05
      1.35654  1.47907e-05
      1.35699  1.47544e-05
      1.35744  1.50438e-05
      1.35790  1.48621e-05
      1.35835  1.48374e-05
      1.35880  1.50220e-05
      1.35925  1.52539e-05
      1.35971  1.47406e-05
      1.36016  1.53125e-05
      1.36061  1.51892e-05
      1.36107  1.51977e-05
      1.36152  1.50795e-05
      1.36197  1.51774e-05
      1.36243  1.49940e-05
      1.36288  1.49986e-05
      1.36334  1.53572e-05
      1.36379  1.56275e-05
      1.36425  1.54854e-05
      1.36470  1.52361e-05
      1.36516  1.57025e-05
      1.36561  1.58016e-05
      1.36607  1.59167e-05
      1.36652  1.56428e-05
      1.36698  1.58229e-05
      1.36743  1.58993e-05
      1.36789  1.59548e-05
      1.36835  1.61359e-05
      1.36880  1.58270e-05
      1.36926  1.61047e-05
      1.36971  1.60953e-05
      1.37017  1.62727e-05
      1.37063  1.62997e-05
      1.37108  1.60504e-05
      1.37154  1.62428e-05
      1.37200  1.64924e-05
      1.37246  1.64468e-05
      1.37291  1.65196e-05
      1.37337  1.65535e-05
      1.37383  1.66035e-05
      1.37429  1.66272e-05
      1.37474  1.66933e-05
      1.37520  1.67953e-05
      1.37566  1.69048e-05
      1.37612  1.68142e-05
      1.37658  1.69275e-05
      1.37704  1.70025e-05
      1.37750  1.70733e-05
      1.37795  1.70242e-05
      1.37841  1.71174e-05
      1.37887  1.70728e-05
      1.37933  1.72104e-05
      1.37979  1.73733e-05
      1.38025  1.74508e-05
      1.38071  1.72340e-05
      1.38117  1.74011e-05
      1.38163  1.76487e-05
      1.38209  1.75837e-05
      1.38256  1.71353e-05
      1.38302  1.75388e-05
      1.38348  1.76830e-05
      1.38394  1.77211e-05
      1.38440  1.78014e-05
      1.38486  1.77714e-05
      1.38532  1.75970e-05
      1.38578  1.78258e-05
      1.38625  1.77932e-05
      1.38671  1.77230e-05
      1.38717  1.81493e-05
      1.38763  1.81562e-05
      1.38810  1.76081e-05
      1.38856  1.81359e-05
      1.38902  1.80838e-05
      1.38948  1.82043e-05
      1.38995  1.79402e-05
      1.39041  1.82109e-05
      1.39087  1.76115e-05
      1.39134  1.67306e-05
      1.39180  1.68991e-05
      1.39226  1.78089e-05
      1.39273  1.74095e-05
      1.39319  1.78703e-05
      1.39366  1.77229e-05
      1.39412  1.83979e-05
      1.39459  1.81670e-05
      1.39505  1.80156e-05
      1.39552  1.78781e-05
      1.39598  1.89668e-05
      1.39645  1.87545e-05
      1.39691  1.82292e-05
      1.39738  1.87240e-05
      1.39784  1.81087e-05
      1.39831  1.79761e-05
      1.39878  1.89209e-05
      1.39924  1.91043e-05
      1.39971  1.88103e-05
      1.40018  1.88860e-05
      1.40064  1.82505e-05
      1.40111  1.91744e-05
      1.40158  1.90473e-05
      1.40204  1.91860e-05
      1.40251  1.92058e-05
      1.40298  1.97717e-05
      1.40345  1.95492e-05
      1.40391  1.97147e-05
      1.40438  1.86622e-05
      1.40485  1.93933e-05
      1.40532  1.99448e-05
      1.40579  1.93972e-05
      1.40626  2.01662e-05
      1.40672  1.96883e-05
      1.40719  1.97911e-05
      1.40766  1.99714e-05
      1.40813  1.99254e-05
      1.40860  1.93278e-05
      1.40907  1.97679e-05
      1.40954  2.00008e-05
      1.41001  2.05469e-05
      1.41048  1.96319e-05
      1.41095  2.03384e-05
      1.41142  2.00783e-05
      1.41189  2.03314e-05
      1.41236  1.95823e-05
      1.41283  2.04573e-05
      1.41330  1.98403e-05
      1.41377  2.09002e-05
      1.41425  1.99247e-05
      1.41472  2.01815e-05
      1.41519  2.09565e-05
      1.41566  2.10324e-05
      1.41613  2.02994e-05
      1.41660  2.10135e-05
      1.41708  2.05185e-05
      1.41755  2.03462e-05
      1.41802  2.08590e-05
      1.41849  2.08254e-05
      1.41897  2.02035e-05
      1.41944  2.09312e-05
      1.41991  2.12293e-05
      1.42039  2.15053e-05
      1.42086  2.14604e-05
      1.42133  2.14243e-05
      1.42181  2.12546e-05
      1.42228  2.15875e-05
      1.42276  2.15588e-05
      1.42323  2.12921e-05
      1.42370  2.09793e-05
      1.42418  2.13135e-05
      1.42465  2.20162e-05
      1.42513  2.15837e-05
      1.42560  2.15127e-05
      1.42608  2.13227e-05
      1.42655  2.17688e-05
      1.42703  2.18123e-05
      1.42751  2.14515e-05
      1.42798  2.23463e-05
      1.42846  2.17659e-05
      1.42893  2.13082e-05
      1.42941  2.22205e-05
      1.42989  2.27128e-05
      1.43036  2.28090e-05
      1.43084  2.28995e-05
      1.43132  2.24402e-05
      1.43179  2.24280e-05
      1.43227  2.28440e-05
      1.43275  2.27821e-05
      1.43323  2.31901e-05
      1.43370  2.25911e-05
      1.43418  2.17871e-05
      1.43466  2.26403e-05
      1.43514  2.30165e-05
      1.43562  2.28240e-05
      1.43609  2.31093e-05
      1.43657  2.30857e-05
      1.43705  2.31321e-05
      1.43753  2.35716e-05
      1.43801  2.29868e-05
      1.43849  2.39556e-05
      1.43897  2.37019e-05
      1.43945  2.28773e-05
      1.43993  2.35479e-05
      1.44041  2.37370e-05
      1.44089  2.35599e-05
      1.44137  2.35840e-05
      1.44185  2.42038e-05
      1.44233  2.37565e-05
      1.44281  2.39359e-05
      1.44329  2.43977e-05
      1.44377  2.45485e-05
      1.44425  2.41819e-05
      1.44474  2.42550e-05
      1.44522  2.37629e-05
      1.44570  2.44012e-05
      1.44618  2.48668e-05
      1.44666  2.43171e-05
      1.44714  2.42858e-05
      1.44763  2.45231e-05
      1.44811  2.48277e-05
      1.44859  2.50714e-05
      1.44907  2.49763e-05
      1.44956  2.51525e-05
      1.45004  2.49772e-05
      1.45053  2.46856e-05
      1.45101  2.41479e-05
      1.45149  2.54304e-05
      1.45197  2.51720e-05
      1.45246  2.52412e-05
      1.45294  2.58703e-05
      1.45343  2.53283e-05
      1.45391  2.54845e-05
      1.45440  2.55607e-05
      1.45488  2.58823e-05
      1.45537  2.61388e-05
      1.45585  2.55510e-05
      1.45634  2.47130e-05
      1.45682  2.51132e-05
      1.45731  2.59029e-05
      1.45779  2.62191e-05
      1.45828  2.63805e-05
      1.45877  2.64905e-05
      1.45925  2.62791e-05
      1.45974  2.66050e-05
      1.46023  2.57580e-05
      1.46071  2.50134e-05
      1.46120  2.50441e-05
      1.46169  2.47589e-05
      1.46217  2.64252e-05
      1.46266  2.55340e-05
      1.46315  2.48553e-05
      1.46364  2.68931e-05
      1.46412  2.67166e-05
      1.46461  2.62872e-05
      1.46510  2.60150e-05
      1.46559  2.70382e-05
      1.46608  2.70842e-05
      1.46657  2.62649e-05
      1.46705  2.66375e-05
      1.46754  2.68663e-05
      1.46803  2.59431e-05
      1.46852  2.73687e-05
      1.46901  2.67100e-05
      1.46950  2.67861e-05
      1.46999  2.59879e-05
      1.47048  2.70366e-05
      1.47097  2.72934e-05
      1.47146  2.71712e-05
      1.47195  2.75796e-05
      1.47244  2.80992e-05
      1.47293  2.83130e-05
      1.47342  2.80374e-05
      1.47391  2.70254e-05
      1.47441  2.80162e-05
      1.47490  2.85379e-05
      1.47539  2.71911e-05
      1.47588  2.80389e-05
      1.47637  2.82468e-05
      1.47687  2.85314e-05
      1.47736  2.75160e-05
      1.47785  2.81787e-05
      1.47834  2.81665e-05
      1.47884  2.91652e-05
      1.47933  2.89868e-05
      1.47982  2.69333e-05
      1.48032  2.84750e-05
      1.48081  2.86755e-05
      1.48130  2.90968e-05
      1.48180  2.85270e-05
      1.48229  2.90799e-05
      1.48278  2.94237e-05
      1.48328  2.90084e-05
      1.48377  3.00700e-05
      1.48427  2.93682e-05
      1.48476  2.92379e-05
      1.48526  2.97134e-05
      1.48575  2.97695e-05
      1.48625  2.95511e-05
      1.48674  3.01862e-05
      1.48724  2.97740e-05
      1.48774  2.96194e-05
      1.48823  2.77077e-05
      1.48873  2.74148e-05
      1.48922  3.05223e-05
      1.48972  3.06939e-05
      1.49021  3.04160e-05
      1.49071  2.90453e-05
      1.49121  3.04004e-05
      1.49171  3.09639e-05
      1.49220  3.10334e-05
      1.49270  3.03695e-05
      1.49320  3.10008e-05
      1.49370  3.11745e-05
      1.49419  3.08216e-05
      1.49469  3.13447e-05
      1.49519  3.09847e-05
      1.49569  3.13887e-05
      1.49619  3.15581e-05
      1.49669  3.17714e-05
      1.49718  3.20021e-05
      1.49768  3.17614e-05
      1.49818  3.19590e-05
      1.49868  3.21607e-05
      1.49918  3.20569e-05
      1.49968  3.20848e-05
      1.50017  3.21200e-05
      1.50068  3.00816e-05
      1.50118  3.21106e-05
      1.50168  3.21165e-05
      1.50218  3.12391e-05
      1.50268  2.77102e-05
      1.50319  3.06927e-05
      1.50369  3.21229e-05
      1.50419  3.07531e-05
      1.50469  3.08701e-05
      1.50519  3.07989e-05
      1.50569  3.21437e-05
      1.50619  3.28813e-05
      1.50670  3.29240e-05
      1.50720  3.35196e-05
      1.50770  3.29734e-05
      1.50820  3.32549e-05
      1.50871  3.30912e-05
      1.50921  3.41652e-05
      1.50971  3.37399e-05
      1.51022  3.34577e-05
      1.51072  3.39689e-05
      1.51122  3.39960e-05
      1.51173  3.38274e-05
      1.51223  3.44613e-05
      1.51273  3.42705e-05
      1.51324  3.25640e-05
      1.51374  3.27123e-05
      1.51425  3.46181e-05
      1.51475  3.39950e-05
      1.51526  3.29911e-05
      1.51576  3.49952e-05
      1.51627  3.47405e-05
      1.51677  3.48805e-05
      1.51728  3.42926e-05
      1.51778  3.41027e-05
      1.51829  3.58677e-05
      1.51880  3.48237e-05
      1.51930  3.53325e-05
      1.51981  3.53219e-05
      1.52032  3.52793e-05
      1.52082  3.59065e-05
      1.52133  3.63058e-05
      1.52184  3.59999e-05
      1.52234  3.60126e-05
      1.52285  3.57889e-05
      1.52336  3.65630e-05
      1.52386  3.59353e-05
      1.52437  3.58505e-05
      1.52488  3.59368e-05
      1.52539  3.63526e-05
      1.52590  3.62054e-05
      1.52641  3.60846e-05
      1.52692  3.37599e-05
      1.52742  3.69065e-05
      1.52793  3.66112e-05
      1.52844  3.40147e-05
      1.52895  3.62391e-05
      1.52946  3.70559e-05
      1.52997  3.73527e-05
      1.53048  3.76696e-05
      1.53099  3.75719e-05
      1.53150  3.74162e-05
      1.53201  3.69186e-05
      1.53252  3.70221e-05
      1.53303  3.60955e-05
      1.53355  3.78342e-05
      1.53406  3.68364e-05
      1.53457  3.79249e-05
      1.53508  3.79294e-05
      1.53559  3.82754e-05
      1.53610  3.88893e-05
      1.53662  3.82316e-05
      1.53713  3.79794e-05
      1.53764  3.66193e-05
      1.53815  3.79561e-05
      1.53866  3.74004e-05
      1.53918  3.80629e-05
      1.53969  3.73164e-05
      1.54020  3.85331e-05
      1.54072  3.72581e-05
      1.54123  3.53999e-05
      1.54174  3.94147e-05
      1.54226  3.73877e-05
      1.54277  3.69136e-05
      1.54329  3.69533e-05
      1.54380  3.87072e-05
      1.54432  3.95814e-05
      1.54483  3.99218e-05
      1.54535  4.00243e-05
      1.54586  4.00816e-05
      1.54638  3.92823e-05
      1.54689  3.98979e-05
      1.54741  3.94133e-05
      1.54792  3.98480e-05
      1.54844  4.04858e-05
      1.54896  4.00490e-05
      1.54947  4.10958e-05
      1.54999  4.03034e-05
      1.55051  4.00584e-05
      1.55102  3.83864e-05
      1.55154  4.09448e-05
      1.55206  4.09372e-05
      1.55257  4.16959e-05
      1.55309  4.13514e-05
      1.55361  4.09079e-05
      1.55413  3.94375e-05
      1.55464  3.90298e-05
      1.55516  4.18499e-05
      1.55568  4.16534e-05
      1.55620  3.89740e-05
      1.55672  4.11742e-05
      1.55724  3.94327e-05
      1.55776  4.00077e-05
      1.55827  4.19918e-05
      1.55879  4.25399e-05
      1.55931  4.25786e-05
      1.55983  4.18952e-05
      1.56035  4.23994e-05
      1.56087  4.26081e-05
      1.56140  4.29169e-05
      1.56192  4.24175e-05
      1.56244  4.33258e-05
      1.56296  4.06665e-05
      1.56348  4.32294e-05
      1.56400  4.35344e-05
      1.56452  4.35374e-05
      1.56504  4.32252e-05
      1.56556  4.04530e-05
      1.56609  4.30942e-05
      1.56661  4.38913e-05
      1.56713  4.41158e-05
      1.56765  4.45398e-05
      1.56817  4.43849e-05
      1.56870  4.43943e-05
      1.56922  4.42372e-05
      1.56974  4.42126e-05
      1.57027  4.39384e-05
      1.57079  4.48383e-05
      1.57131  4.48097e-05
      1.57184  4.36244e-05
      1.57236  4.16020e-05
      1.57289  4.33639e-05
      1.57341  4.29687e-05
      1.57394  4.52647e-05
      1.57446  4.50510e-05
      1.57498  4.47615e-05
      1.57551  4.47103e-05
      1.57604  4.28345e-05
      1.57656  4.49819e-05
      1.57709  4.37941e-05
      1.57761  4.56272e-05
      1.57814  4.31350e-05
      1.57866  4.60606e-05
      1.57919  4.67783e-05
      1.57971  4.69027e-05
      1.58024  4.64057e-05
      1.58077  4.68436e-05
      1.58130  4.74807e-05
      1.58182  4.67904e-05
      1.58235  4.71118e-05
      1.58288  4.71379e-05
      1.58340  4.66285e-05
      1.58393  4.65703e-05
      1.58446  4.70686e-05
      1.58499  4.70223e-05
      1.58552  4.80828e-05
      1.58604  4.82140e-05
      1.58657  4.77854e-05
      1.58710  4.80475e-05
      1.58763  4.84093e-05
      1.58816  4.84060e-05
      1.58869  4.68880e-05
      1.58922  4.52932e-05
      1.58975  4.36683e-05
      1.59028  4.61873e-05
      1.59081  4.89585e-05
      1.59134  4.69637e-05
      1.59187  4.69563e-05
      1.59240  4.90243e-05
      1.59293  4.92276e-05
      1.59346  4.91768e-05
      1.59399  4.93868e-05
      1.59453  4.96459e-05
      1.59506  4.97793e-05
      1.59559  5.02902e-05
      1.59612  5.00270e-05
      1.59665  5.03020e-05
      1.59719  4.94740e-05
      1.59772  5.02716e-05
      1.59825  5.04762e-05
      1.59878  5.08009e-05
      1.59932  5.06695e-05
      1.59985  5.07650e-05
      1.60038  5.08635e-05
      1.60092  5.11689e-05
      1.60145  5.12669e-05
      1.60198  5.09955e-05
      1.60252  5.11232e-05
      1.60305  5.10583e-05
      1.60359  5.16783e-05
      1.60412  4.77355e-05
      1.60465  5.10806e-05
      1.60519  5.21186e-05
      1.60572  4.84860e-05
      1.60626  5.06164e-05
      1.60680  4.84126e-05
      1.60733  4.99677e-05
      1.60787  4.93643e-05
      1.60840  5.23547e-05
      1.60894  5.27446e-05
      1.60947  5.27744e-05
      1.61001  5.27971e-05
      1.61055  5.27812e-05
      1.61108  5.27886e-05
      1.61162  5.33842e-05
      1.61216  5.28787e-05
      1.61270  5.24477e-05
      1.61323  5.32961e-05
      1.61377  5.30644e-05
      1.61431  5.27305e-05
      1.61485  5.33872e-05
      1.61539  5.13566e-05
      1.61592  5.10683e-05
      1.61646  5.26417e-05
      1.61700  5.41710e-05
      1.61754  5.45701e-05
      1.61808  5.45594e-05
      1.61862  5.43329e-05
      1.61916  5.31786e-05
      1.61970  4.96286e-05
      1.62024  5.10712e-05
      1.62078  5.14704e-05
      1.62132  5.22263e-05
      1.62186  5.43257e-05
      1.62240  5.39707e-05
      1.62294  5.38759e-05
      1.62348  5.34925e-05
      1.62402  5.59981e-05
      1.62456  5.44799e-05
      1.62511  5.35152e-05
      1.62565  5.28607e-05
      1.62619  5.31548e-05
      1.62673  5.45995e-05
      1.62727  5.58461e-05
      1.62782  5.59848e-05
      1.62836  5.65009e-05
      1.62890  5.69736e-05
      1.62944  5.68820e-05
      1.62999  5.65535e-05
      1.63053  5.64644e-05
      1.63107  5.68398e-05
      1.63162  5.50895e-05
      1.63216  5.70758e-05
      1.63271  5.75247e-05
      1.63325  5.78897e-05
      1.63380  5.78193e-05
      1.63434  5.67202e-05
      1.63488  5.67064e-05
      1.63543  5.51655e-05
      1.63597  5.49266e-05
      1.63652  5.78781e-05
      1.63707  5.37458e-05
      1.63761  5.82968e-05
      1.63816  5.85826e-05
      1.63870  5.81824e-05
      1.63925  5.88888e-05
      1.63980  5.85872e-05
      1.64034  5.89002e-05
      1.64089  5.92845e-05
      1.64144  5.86160e-05
      1.64198  5.92080e-05
      1.64253  5.95775e-05
      1.64308  5.95814e-05
      1.64363  5.97633e-05
      1.64417  5.92609e-05
      1.64472  5.63147e-05
      1.64527  5.58550e-05
      1.64582  5.72797e-05
      1.64637  5.96959e-05
      1.64692  6.05025e-05
      1.64746  5.85632e-05
      1.64801  5.94063e-05
      1.64856  6.09138e-05
      1.64911  6.04751e-05
      1.64966  6.08630e-05
      1.65021  6.09000e-05
      1.65076  6.09482e-05
      1.65131  6.11183e-05
      1.65186  6.12751e-05
      1.65241  6.12341e-05
      1.65296  5.69675e-05
      1.65351  6.14538e-05
      1.65407  5.71695e-05
      1.65462  6.10465e-05
      1.65517  6.18303e-05
      1.65572  6.22950e-05
      1.65627  6.25755e-05
      1.65682  6.26513e-05
      1.65738  6.23719e-05
      1.65793  6.25004e-05
      1.65848  6.02436e-05
      1.65903  6.23505e-05
      1.65959  6.28970e-05
      1.66014  6.27472e-05
      1.66069  6.24264e-05
      1.66125  6.01543e-05
      1.66180  6.33351e-05
      1.66236  6.32664e-05
      1.66291  6.37344e-05
      1.66346  6.35883e-05
      1.66402  6.32801e-05
      1.66457  6.40405e-05
      1.66513  6.36010e-05
      1.66568  6.05068e-05
      1.66624  6.15671e-05
      1.66679  6.19283e-05
      1.66735  6.39056e-05
      1.66791  6.40192e-05
      1.66846  6.48361e-05
      1.66902  6.41978e-05
      1.66957  6.45418e-05
      1.67013  6.46979e-05
      1.67069  6.24304e-05
      1.67124  6.21532e-05
      1.67180  6.22315e-05
      1.67236  6.06199e-05
      1.67292  6.47430e-05
      1.67347  6.24945e-05
      1.67403  6.55654e-05
      1.67459  6.55901e-05
      1.67515  6.32475e-05
      1.67571  6.10295e-05
      1.67626  6.55509e-05
      1.67682  6.51718e-05
      1.67738  6.59922e-05
      1.67794  6.62337e-05
      1.67850  6.65746e-05
      1.67906  6.65598e-05
      1.67962  6.66341e-05
      1.68018  6.64919e-05
      1.68074  6.67024e-05
      1.68130  6.67805e-05
      1.68186  6.70848e-05
      1.68242  6.70923e-05
      1.68298  6.71890e-05
      1.68354  6.72977e-05
      1.68410  6.70102e-05
      1.68466  6.74946e-05
      1.68523  6.75200e-05
      1.68579  6.75397e-05
      1.68635  6.79064e-05
      1.68691  6.58487e-05
      1.68747  6.45234e-05
      1.68804  6.70406e-05
      1.68860  6.57478e-05
      1.68916  6.50058e-05
      1.68973  6.61043e-05
      1.69029  6.51086e-05
      1.69085  6.27622e-05
      1.69142  6.60001e-05
      1.69198  6.82518e-05
      1.69254  6.83026e-05
      1.69311  6.90630e-05
      1.69367  6.91129e-05
      1.69424  6.89424e-05
      1.69480  6.89503e-05
      1.69537  6.85093e-05
      1.69593  6.88595e-05
      1.69650  6.93953e-05
      1.69706  6.93262e-05
      1.69763  6.89287e-05
      1.69819  6.95663e-05
      1.69876  6.97076e-05
      1.69933  6.93682e-05
      1.69989  6.93958e-05
      1.70046  6.98581e-05
      1.70103  6.89034e-05
      1.70159  7.00068e-05
      1.70216  7.03581e-05
      1.70273  6.98973e-05
      1.70329  7.03634e-05
      1.70386  7.01119e-05
      1.70443  7.01857e-05
      1.70500  7.01017e-05
      1.70557  6.71691e-05
      1.70614  7.08389e-05
      1.70670  7.00331e-05
      1.70727  6.71226e-05
      1.70784  6.98911e-05
      1.70841  6.96208e-05
      1.70898  7.06182e-05
      1.70955  7.07388e-05
      1.71012  6.66999e-05
      1.71069  6.43153e-05
      1.71126  6.09414e-05
      1.71183  6.87536e-05
      1.71240  6.97807e-05
      1.71297  7.09187e-05
      1.71354  7.12556e-05
      1.71412  7.07289e-05
      1.71469  7.07983e-05
      1.71526  7.17946e-05
      1.71583  7.09595e-05
      1.71640  7.20086e-05
      1.71697  7.09548e-05
      1.71755  6.97615e-05
      1.71812  7.08763e-05
      1.71869  7.08094e-05
      1.71926  7.05699e-05
      1.71984  7.11801e-05
      1.72041  7.25258e-05
      1.72099  6.99699e-05
      1.72156  7.19320e-05
      1.72213  7.27500e-05
      1.72271  7.14741e-05
      1.72328  6.90201e-05
      1.72386  7.20890e-05
      1.72443  7.07434e-05
      1.72500  7.02548e-05
      1.72558  7.29821e-05
      1.72616  7.26712e-05
      1.72673  7.11786e-05
      1.72731  7.14953e-05
      1.72788  7.36508e-05
      1.72846  7.35898e-05
      1.72903  7.25293e-05
      1.72961  7.27921e-05
      1.73019  7.34406e-05
      1.73076  7.46789e-05
      1.73134  7.10259e-05
      1.73192  6.80038e-05
      1.73249  7.19601e-05
      1.73307  7.27978e-05
      1.73365  7.30115e-05
      1.73423  7.01037e-05
      1.73481  7.17364e-05
      1.73538  7.11559e-05
      1.73596  7.39480e-05
      1.73654  7.39809e-05
      1.73712  7.28902e-05
      1.73770  7.53575e-05
      1.73828  7.18463e-05
      1.73886  7.38913e-05
      1.73944  7.46519e-05
      1.74002  7.41186e-05
      1.74060  7.16694e-05
      1.74118  7.42397e-05
      1.74176  7.21831e-05
      1.74234  7.42947e-05
      1.74292  7.18009e-05
      1.74350  7.31177e-05
      1.74408  7.46422e-05
      1.74466  7.42286e-05
      1.74524  7.45630e-05
      1.74582  7.51203e-05
      1.74641  7.49669e-05
      1.74699  7.44738e-05
      1.74757  7.41924e-05
      1.74816  7.41416e-05
      1.74874  7.70852e-05
      1.74932  7.41162e-05
      1.74990  7.52595e-05
      1.75049  7.11937e-05
      1.75107  7.49753e-05
      1.75165  7.53473e-05
      1.75224  7.51306e-05
      1.75282  7.56481e-05
      1.75341  7.33388e-05
      1.75399  7.34779e-05
      1.75457  7.27548e-05
      1.75516  7.41638e-05
      1.75574  7.35958e-05
      1.75633  7.39961e-05
      1.75692  7.45252e-05
      1.75750  7.65123e-05
      1.75809  7.47607e-05
      1.75867  7.47388e-05
      1.75926  7.32588e-05
      1.75985  7.52713e-05
      1.76043  7.46801e-05
      1.76102  7.40025e-05
      1.76161  7.59302e-05
      1.76219  7.34385e-05
      1.76278  7.35478e-05
      1.76337  7.56148e-05
      1.76396  7.73952e-05
      1.76454  7.45175e-05
      1.76513  7.68971e-05
      1.76572  7.66082e-05
      1.76631  7.76056e-05
      1.76690  7.49561e-05
      1.76749  7.66102e-05
      1.76808  7.40932e-05
      1.76867  7.25255e-05
      1.76926  7.58665e-05
      1.76985  7.97699e-05
      1.77043  7.63632e-05
      1.77103  7.62812e-05
      1.77162  7.50431e-05
      1.77220  7.49139e-05
      1.77280  7.51653e-05
      1.77339  7.71875e-05
      1.77398  7.94133e-05
      1.77457  7.69372e-05
      1.77516  7.46525e-05
      1.77575  7.67108e-05
      1.77635  7.51922e-05
      1.77694  7.60645e-05
      1.77753  7.51472e-05
      1.77812  7.50939e-05
      1.77872  7.66069e-05
      1.77931  7.65467e-05
      1.77990  7.63937e-05
      1.78050  7.88807e-05
      1.78109  7.46572e-05
      1.78168  7.54865e-05
      1.78227  7.62248e-05
      1.78287  7.21625e-05
      1.78346  7.64183e-05
      1.78406  7.93684e-05
      1.78465  7.78027e-05
      1.78525  7.58631e-05
      1.78584  7.45016e-05
      1.78644  7.66372e-05
      1.78703  7.41379e-05
      1.78763  7.64040e-05
      1.78823  7.69684e-05
      1.78882  7.77319e-05
      1.78942  7.97034e-05
      1.79001  7.98792e-05
      1.79061  7.61188e-05
      1.79121  7.55101e-05
      1.79180  7.79331e-05
      1.79240  7.95723e-05
      1.79300  7.88368e-05
      1.79360  7.71930e-05
      1.79420  7.77351e-05
      1.79479  7.68922e-05
      1.79539  7.83024e-05
      1.79599  7.82076e-05
      1.79659  7.55730e-05
      1.79719  8.03532e-05
      1.79779  7.97298e-05
      1.79838  8.07737e-05
      1.79898  7.71404e-05
      1.79958  7.65940e-05
      1.80018  7.95575e-05
      1.80078  7.62247e-05
      1.80138  7.56302e-05
      1.80198  7.77028e-05
      1.80259  7.49363e-05
      1.80319  7.72153e-05
      1.80379  7.86043e-05
      1.80439  7.86811e-05
      1.80499  7.71792e-05
      1.80559  7.69779e-05
      1.80620  7.93651e-05
      1.80680  8.11818e-05
      1.80740  7.66258e-05
      1.80800  7.95302e-05
      1.80860  7.81583e-05
      1.80921  8.23217e-05
      1.80981  8.20942e-05
      1.81041  7.93538e-05
      1.81102  7.57254e-05
      1.81162  7.96530e-05
      1.81222  7.94790e-05
      1.81283  7.83160e-05
      1.81343  7.99272e-05
      1.81404  8.17466e-05
      1.81464  8.39808e-05
      1.81525  7.97735e-05
      1.81585  8.01308e-05
      1.81646  8.34451e-05
      1.81706  7.81384e-05
      1.81767  7.98428e-05
      1.81827  8.14425e-05
      1.81888  7.87773e-05
      1.81949  7.87681e-05
      1.82009  7.92619e-05
      1.82070  8.11054e-05
      1.82131  7.90040e-05
      1.82191  7.66765e-05
      1.82252  7.78752e-05
      1.82313  8.49207e-05
      1.82374  8.62151e-05
      1.82434  8.57731e-05
      1.82495  8.05928e-05
      1.82556  8.27951e-05
      1.82617  7.67966e-05
      1.82678  8.16183e-05
      1.82739  7.89641e-05
      1.82800  8.10516e-05
      1.82861  8.09271e-05
      1.82921  8.33424e-05
      1.82982  8.44956e-05
      1.83043  8.08941e-05
      1.83104  8.27414e-05
      1.83165  8.48143e-05
      1.83227  7.89858e-05
      1.83288  8.24987e-05
      1.83349  8.41154e-05
      1.83410  8.40687e-05
      1.83471  8.37177e-05
      1.83532  8.30252e-05
      1.83593  8.19543e-05
      1.83654  8.19283e-05
      1.83716  8.55207e-05
      1.83777  8.05016e-05
      1.83838  8.57607e-05
      1.83900  8.37764e-05
      1.83961  8.06696e-05
      1.84022  8.35824e-05
      1.84083  8.42728e-05
      1.84145  8.78312e-05
      1.84206  8.07612e-05
      1.84267  8.25170e-05
      1.84329  8.21178e-05
      1.84390  7.91058e-05
      1.84452  8.18976e-05
      1.84513  8.53638e-05
      1.84575  8.15492e-05
      1.84636  8.48659e-05
      1.84698  7.81875e-05
      1.84759  8.19203e-05
      1.84821  8.02091e-05
      1.84883  8.17625e-05
      1.84944  8.17812e-05
      1.85006  8.40704e-05
      1.85068  8.49054e-05
      1.85129  8.42033e-05
      1.85191  8.63192e-05
      1.85253  8.46603e-05
      1.85315  7.96543e-05
      1.85376  8.30599e-05
      1.85438  8.64393e-05
      1.85500  8.23833e-05
      1.85562  8.71153e-05
      1.85624  8.08127e-05
      1.85685  7.86421e-05
      1.85747  8.21076e-05
      1.85809  7.86656e-05
      1.85871  8.26683e-05
      1.85933  8.18026e-05
      1.85995  8.23871e-05
      1.86057  7.92289e-05
      1.86119  8.16881e-05
      1.86181  8.46035e-05
      1.86243  8.66143e-05
      1.86305  8.43913e-05
      1.86367  8.57158e-05
      1.86430  8.39349e-05
      1.86492  8.49047e-05
      1.86554  8.40623e-05
      1.86616  8.70294e-05
      1.86678  8.68566e-05
      1.86741  8.84425e-05
      1.86803  8.11662e-05
      1.86865  8.83783e-05
      1.86927  8.93751e-05
      1.86990  8.78479e-05
      1.87052  8.92989e-05
      1.87114  8.20974e-05
      1.87177  8.78084e-05
      1.87239  8.78782e-05
      1.87302  7.91452e-05
      1.87364  8.43607e-05
      1.87426  8.63866e-05
      1.87489  8.68018e-05
      1.87551  8.71772e-05
      1.87614  8.87767e-05
      1.87676  8.58207e-05
      1.87739  8.65069e-05
      1.87802  8.72464e-05
      1.87864  8.39537e-05
      1.87927  8.66060e-05
      1.87989  8.77893e-05
      1.88052  9.01308e-05
      1.88115  8.69963e-05
      1.88177  8.72315e-05
      1.88240  9.12669e-05
      1.88303  9.28554e-05
      1.88366  9.06132e-05
      1.88428  8.99934e-05
      1.88491  8.48710e-05
      1.88554  8.95926e-05
      1.88617  8.84378e-05
      1.88680  8.65601e-05
      1.88743  9.29529e-05
      1.88806  9.12571e-05
      1.88869  8.69844e-05
      1.88931  9.12336e-05
      1.88994  9.04401e-05
      1.89057  9.07254e-05
      1.89120  8.98742e-05
      1.89183  8.66785e-05
      1.89247  8.74686e-05
      1.89310  8.81730e-05
      1.89373  9.15130e-05
      1.89436  9.07467e-05
      1.89499  8.84043e-05
      1.89562  9.49553e-05
      1.89626  8.90228e-05
      1.89689  9.37324e-05
      1.89752  9.31841e-05
      1.89815  8.93852e-05
      1.89878  9.10599e-05
      1.89942  9.25904e-05
      1.90005  9.51329e-05
      1.90068  9.34388e-05
      1.90132  8.92112e-05
      1.90195  9.56793e-05
      1.90259  9.38887e-05
      1.90322  9.06983e-05
      1.90385  9.22209e-05
      1.90449  9.36075e-05
      1.90512  9.20190e-05
      1.90576  9.26125e-05
      1.90639  9.12813e-05
      1.90703  9.18207e-05
      1.90767  9.24202e-05
      1.90830  9.47455e-05
      1.90894  9.43598e-05
      1.90957  9.32825e-05
      1.91021  9.39721e-05
      1.91085  9.04489e-05
      1.91148  9.01929e-05
      1.91212  9.57879e-05
      1.91276  9.58821e-05
      1.91339  9.57304e-05
      1.91403  9.68326e-05
      1.91467  9.45978e-05
      1.91531  9.73089e-05
      1.91595  9.28215e-05
      1.91659  9.24521e-05
      1.91723  9.48263e-05
      1.91786  9.59235e-05
      1.91850  9.54032e-05
      1.91914  9.75892e-05
      1.91978  9.40586e-05
      1.92042  9.55877e-05
      1.92106  9.46354e-05
      1.92170  9.69394e-05
      1.92234  9.56784e-05
      1.92298  9.53949e-05
      1.92363  9.57514e-05
      1.92427  9.43074e-05
      1.92491  9.64214e-05
      1.92555  9.57961e-05
      1.92619  9.65336e-05
      1.92683  9.34458e-05
      1.92747  9.93300e-05
      1.92812  0.000100490
      1.92876  9.59100e-05
      1.92940  9.53168e-05
      1.93005  9.54934e-05
      1.93069  9.22389e-05
      1.93133  7.35988e-05
      1.93198  9.03396e-05
      1.93262  9.64230e-05
      1.93327  9.77442e-05
      1.93391  9.35133e-05
      1.93456  9.84967e-05
      1.93520  9.91319e-05
      1.93585  9.87394e-05
      1.93649  9.67995e-05
      1.93714  9.99562e-05
      1.93778  9.94166e-05
      1.93843  9.64165e-05
      1.93907  9.65505e-05
      1.93972  9.64779e-05
      1.94037  9.63486e-05
      1.94101  9.81382e-05
      1.94166  9.95179e-05
      1.94231  9.99885e-05
      1.94295  9.75962e-05
      1.94360  9.50739e-05
      1.94425  9.94452e-05
      1.94490  9.17219e-05
      1.94555  7.77738e-05
      1.94619  8.30038e-05
      1.94684  9.72038e-05
      1.94749  9.88389e-05
      1.94814  9.57178e-05
      1.94879  9.79043e-05
      1.94944  9.87786e-05
      1.95009  0.000100397
      1.95074  8.89996e-05
      1.95139  8.40231e-05
      1.95204  9.91090e-05
      1.95269  9.92690e-05
      1.95334  9.72267e-05
      1.95399  0.000102242
      1.95465  0.000101010
      1.95530  9.62935e-05
      1.95595  0.000101326
      1.95660  9.57865e-05
      1.95725  0.000102917
      1.95791  0.000101241
      1.95856  0.000104774
      1.95921  0.000105464
      1.95986  9.84096e-05
      1.96052  9.83295e-05
      1.96117  9.88504e-05
      1.96182  9.95194e-05
      1.96248  0.000103396
      1.96313  0.000102021
      1.96379  9.66183e-05
      1.96444  0.000101821
      1.96510  0.000102487
      1.96575  0.000101824
      1.96641  0.000105022
      1.96706  0.000103906
      1.96772  9.97252e-05
      1.96837  0.000104621
      1.96903  0.000100425
      1.96969  0.000104469
      1.97034  0.000106353
      1.97100  9.96352e-05
      1.97166  0.000102071
      1.97231  0.000105220
      1.97297  0.000100208
      1.97363  0.000103701
      1.97429  0.000102144
      1.97494  0.000103186
      1.97560  9.67530e-05
      1.97626  9.48328e-05
      1.97692  0.000101118
      1.97758  9.09538e-05
      1.97824  7.13397e-05
      1.97890  9.32179e-05
      1.97956  9.88725e-05
      1.98022  9.76641e-05
      1.98088  0.000101502
      1.98154  0.000102092
      1.98220  0.000100865
      1.98286  0.000100863
      1.98352  0.000105447
      1.98418  0.000101453
      1.98484  0.000102034
      1.98550  9.84341e-05
      1.98617  9.40471e-05
      1.98683  8.42664e-05
      1.98749  0.000102777
      1.98815  0.000102135
      1.98882  0.000104852
      1.98948  0.000102633
      1.99014  9.94762e-05
      1.99081  0.000101838
      1.99147  0.000102352
      1.99213  9.58249e-05
      1.99280  0.000106371
      1.99346  0.000101828
      1.99413  9.80349e-05
      1.99479  0.000103551
      1.99545  0.000100269
      1.99612  0.000108545
      1.99679  0.000104276
      1.99745  9.81641e-05
      1.99812  0.000104592
      1.99878  0.000106054
      1.99945  0.000104557
      2.00009  0.000100241
      2.00078  0.000106069
      2.00145  0.000106840
      2.00212  0.000102303
      2.00278  0.000108159
      2.00345  0.000106273
      2.00412  0.000104571
      2.00479  0.000106650
      2.00546  0.000106595
      2.00612  0.000104908
      2.00679  0.000106357
      2.00746  0.000106536
      2.00813  0.000109972
      2.00880  0.000101502
      2.00947  0.000103089
      2.01014  0.000106614
      2.01081  0.000103883
      2.01148  0.000105405
      2.01215  0.000105850
      2.01282  0.000106666
      2.01349  0.000104829
      2.01416  0.000107067
      2.01483  0.000108652
      2.01551  0.000105176
      2.01618  0.000106202
      2.01685  0.000104950
      2.01752  0.000109511
      2.01819  0.000107214
      2.01887  0.000107357
      2.01954  0.000101958
      2.02021  0.000102866
      2.02089  0.000109559
      2.02156  0.000110790
      2.02223  0.000106712
      2.02291  0.000108271
      2.02358  0.000108478
      2.02426  0.000109718
      2.02493  0.000110739
      2.02561  0.000105166
      2.02628  0.000106243
      2.02696  0.000105056
      2.02763  0.000108137
      2.02831  0.000109136
      2.02898  0.000102869
      2.02966  0.000108130
      2.03034  0.000108074
      2.03102  0.000104063
      2.03169  0.000112457
      2.03237  0.000112659
      2.03305  0.000109495
      2.03372  0.000109678
      2.03440  0.000109753
      2.03508  0.000109442
      2.03576  0.000104413
      2.03644  0.000109516
      2.03712  0.000111121
      2.03779  0.000113063
      2.03847  0.000106712
      2.03915  0.000109692
      2.03983  0.000109197
      2.04051  0.000109551
      2.04119  0.000107695
      2.04187  0.000112700
      2.04255  0.000113176
      2.04324  0.000113724
      2.04392  0.000107377
      2.04460  0.000108416
      2.04528  0.000107694
      2.04596  0.000109282
      2.04664  0.000112908
      2.04733  0.000111122
      2.04801  0.000113768
      2.04869  0.000108836
      2.04937  0.000108734
      2.05006  0.000107387
      2.05074  0.000114106
      2.05142  0.000113652
      2.05211  0.000111540
      2.05279  0.000113447
      2.05348  0.000113384
      2.05416  0.000106560
      2.05484  0.000110583
      2.05553  0.000112192
      2.05622  0.000109999
      2.05690  0.000113050
      2.05759  0.000112820
      2.05827  0.000115771
      2.05896  0.000112122
      2.05964  0.000114345
      2.06033  0.000112442
      2.06102  0.000110326
      2.06171  0.000115702
      2.06239  0.000111337
      2.06308  0.000112714
      2.06377  0.000109627
      2.06445  0.000111050
      2.06514  0.000111960
      2.06583  0.000110198
      2.06652  0.000117203
      2.06721  0.000113275
      2.06790  0.000113352
      2.06859  0.000114938
      2.06928  0.000111390
      2.06997  0.000115656
      2.07066  0.000118076
      2.07135  0.000114343
      2.07204  0.000113049
      2.07273  0.000114560
      2.07342  0.000111452
      2.07411  0.000114007
      2.07480  0.000115231
      2.07549  0.000114646
      2.07618  0.000114895
      2.07688  0.000115569
      2.07757  0.000114440
      2.07826  0.000117286
      2.07896  0.000115060
      2.07965  0.000115234
      2.08034  0.000115976
      2.08103  0.000116246
      2.08173  0.000113762
      2.08242  0.000116283
      2.08312  0.000116533
      2.08381  0.000115228
      2.08451  0.000116523
      2.08520  0.000115535
      2.08589  0.000115160
      2.08659  0.000117408
      2.08729  0.000113884
      2.08798  0.000117520
      2.08868  0.000116933
      2.08937  0.000114302
      2.09007  0.000114755
      2.09077  0.000120404
      2.09146  0.000119202
      2.09216  0.000116818
      2.09286  0.000121199
      2.09356  0.000115577
      2.09425  0.000116775
      2.09495  0.000117878
      2.09565  0.000118086
      2.09635  0.000116177
      2.09705  0.000118281
      2.09775  0.000116393
      2.09845  0.000119508
      2.09914  0.000118292
      2.09984  0.000116983
      2.10054  0.000117888
      2.10124  0.000121098
      2.10194  0.000116916
      2.10265  0.000120226
      2.10335  0.000118650
      2.10405  0.000121152
      2.10475  0.000119533
      2.10545  0.000117398
      2.10615  0.000120310
      2.10685  0.000121256
      2.10756  0.000119242
      2.10826  0.000118265
      2.10896  0.000119210
      2.10967  0.000120784
      2.11037  0.000121368
      2.11107  0.000122617
      2.11178  0.000117546
      2.11248  0.000119530
      2.11318  0.000121034
      2.11389  0.000121781
      2.11459  0.000122583
      2.11530  0.000121087
      2.11600  0.000122686
      2.11671  0.000119337
      2.11741  0.000119032
      2.11812  0.000121795
      2.11883  0.000122738
      2.11953  0.000120976
      2.12024  0.000121633
      2.12094  0.000122812
      2.12165  0.000121846
      2.12236  0.000122433
      2.12307  0.000123601
      2.12378  0.000122214
      2.12448  0.000123074
      2.12519  0.000124875
      2.12590  0.000120886
      2.12661  0.000123059
      2.12732  0.000122906
      2.12803  0.000122029
      2.12874  0.000120979
      2.12944  0.000123438
      2.13015  0.000123809
      2.13086  0.000123324
      2.13157  0.000125446
      2.13229  0.000123274
      2.13300  0.000124993
      2.13371  0.000125628
      2.13442  0.000122545
      2.13513  0.000125497
      2.13584  0.000125235
      2.13655  0.000124811
      2.13727  0.000124195
      2.13798  0.000124537
      2.13869  0.000123028
      2.13940  0.000126160
      2.14012  0.000122249
      2.14083  0.000124975
      2.14154  0.000125763
      2.14226  0.000124146
      2.14297  0.000125828
      2.14369  0.000127920
      2.14440  0.000127245
      2.14512  0.000127702
      2.14583  0.000126671
      2.14654  0.000127532
      2.14726  0.000128234
      2.14798  0.000126641
      2.14869  0.000125675
      2.14941  0.000126251
      2.15012  0.000124812
      2.15084  0.000127233
      2.15156  0.000127913
      2.15228  0.000126602
      2.15299  0.000126226
      2.15371  0.000127814
      2.15443  0.000126899
      2.15515  0.000129071
      2.15587  0.000127922
      2.15658  0.000128175
      2.15730  0.000128660
      2.15802  0.000128803
      2.15874  0.000128889
      2.15946  0.000128139
      2.16018  0.000127900
      2.16090  0.000129656
      2.16162  0.000130034
      2.16234  0.000128978
      2.16306  0.000127686
      2.16378  0.000129745
      2.16451  0.000130063
      2.16523  0.000130333
      2.16595  0.000129144
      2.16667  0.000129806
      2.16739  0.000130406
      2.16812  0.000130387
      2.16884  0.000131330
      2.16956  0.000130940
      2.17028  0.000129974
      2.17101  0.000130155
      2.17173  0.000130469
      2.17246  0.000129854
      2.17318  0.000131123
      2.17390  0.000130972
      2.17463  0.000131610
      2.17535  0.000130660
      2.17608  0.000130058
      2.17680  0.000130982
      2.17753  0.000131777
      2.17826  0.000131843
      2.17898  0.000126891
      2.17971  0.000131240
      2.18043  0.000131587
      2.18116  0.000131420
      2.18189  0.000133090
      2.18261  0.000130762
      2.18334  0.000131663
      2.18407  0.000131661
      2.18480  0.000132881
      2.18553  0.000133335
      2.18625  0.000132506
      2.18698  0.000133877
      2.18771  0.000132299
      2.18844  0.000132956
      2.18917  0.000133164
      2.18990  0.000132321
      2.19063  0.000130777
      2.19136  0.000133997
      2.19209  0.000133577
      2.19282  0.000133024
      2.19355  0.000134217
      2.19428  0.000134000
      2.19502  0.000134914
      2.19575  0.000134282
      2.19648  0.000135202
      2.19721  0.000133163
      2.19794  0.000134974
      2.19868  0.000134800
      2.19941  0.000134543
      2.20014  0.000134767
      2.20088  0.000134122
      2.20161  0.000135436
      2.20234  0.000134674
      2.20308  0.000134399
      2.20381  0.000135080
      2.20455  0.000135551
      2.20528  0.000134410
      2.20602  0.000128768
      2.20675  0.000133704
      2.20749  0.000136059
      2.20822  0.000135660
      2.20896  0.000131564
      2.20970  0.000135867
      2.21043  0.000136059
      2.21117  0.000135966
      2.21191  0.000137232
      2.21264  0.000136811
      2.21338  0.000136404
      2.21412  0.000137660
      2.21486  0.000136923
      2.21560  0.000136878
      2.21633  0.000137534
      2.21707  0.000136784
      2.21781  0.000137543
      2.21855  0.000138310
      2.21929  0.000137040
      2.22003  0.000137278
      2.22077  0.000137599
      2.22151  0.000135097
      2.22225  0.000138520
      2.22299  0.000138299
      2.22373  0.000135990
      2.22447  0.000139136
      2.22522  0.000139371
      2.22596  0.000138997
      2.22670  0.000138063
      2.22744  0.000138503
      2.22818  0.000136564
      2.22893  0.000137228
      2.22967  0.000138805
      2.23041  0.000138893
      2.23116  0.000139877
      2.23190  0.000138955
      2.23265  0.000139458
      2.23339  0.000138856
      2.23413  0.000139016
      2.23488  0.000138947
      2.23562  0.000139615
      2.23637  0.000139121
      2.23711  0.000140687
      2.23786  0.000140318
      2.23860  0.000140198
      2.23935  0.000140640
      2.24010  0.000140724
      2.24084  0.000141246
      2.24159  0.000140054
      2.24234  0.000140971
      2.24309  0.000140372
      2.24383  0.000140873
      2.24458  0.000140729
      2.24533  0.000141228
      2.24608  0.000141256
      2.24683  0.000141397
      2.24758  0.000141405
      2.24832  0.000141051
      2.24907  0.000142454
      2.24982  0.000141633
      2.25057  0.000141316
      2.25132  0.000142598
      2.25207  0.000141742
      2.25283  0.000142171
      2.25358  0.000142362
      2.25433  0.000142009
      2.25508  0.000141808
      2.25583  0.000142638
      2.25658  0.000143273
      2.25733  0.000142419
      2.25809  0.000141940
      2.25884  0.000142931
      2.25959  0.000142558
      2.26035  0.000142450
      2.26110  0.000142609
      2.26185  0.000142346
      2.26261  0.000142662
      2.26336  0.000141846
      2.26412  0.000142723
      2.26487  0.000142666
      2.26562  0.000142699
      2.26638  0.000143468
      2.26714  0.000143856
      2.26789  0.000143768
      2.26865  0.000143538
      2.26940  0.000144201
      2.27016  0.000142764
      2.27092  0.000143769
      2.27167  0.000143622
      2.27243  0.000143899
      2.27319  0.000144431
      2.27395  0.000144375
      2.27470  0.000144118
      2.27546  0.000145467
      2.27622  0.000144916
      2.27698  0.000144981
      2.27774  0.000145072
      2.27850  0.000144755
      2.27926  0.000144434
      2.28002  0.000144895
      2.28078  0.000144018
      2.28154  0.000145766
      2.28230  0.000145524
      2.28306  0.000144257
      2.28382  0.000145356
      2.28458  0.000144260
      2.28534  0.000145740
      2.28610  0.000145994
      2.28687  0.000146284
      2.28763  0.000146059
      2.28839  0.000146443
      2.28915  0.000145974
      2.28992  0.000147002
      2.29068  0.000146655
      2.29144  0.000145393
      2.29221  0.000146395
      2.29297  0.000145958
      2.29374  0.000139024
      2.29450  0.000142344
      2.29527  0.000142800
      2.29603  0.000143133
      2.29680  0.000142488
      2.29756  0.000143295
      2.29833  0.000144721
      2.29909  0.000144919
      2.29986  0.000146101
      2.30063  0.000145022
      2.30139  0.000144172
      2.30216  0.000146199
      2.30293  0.000144829
      2.30370  0.000144615
      2.30446  0.000146277
      2.30523  0.000146507
      2.30600  0.000145592
      2.30677  0.000145435
      2.30754  0.000145340
      2.30831  0.000147787
      2.30908  0.000145834
      2.30985  0.000145337
      2.31062  0.000146368
      2.31139  0.000145106
      2.31216  0.000146083
      2.31293  0.000147382
      2.31370  0.000145661
      2.31447  0.000146131
      2.31524  0.000145353
      2.31601  0.000146237
      2.31678  0.000147144
      2.31756  0.000145649
      2.31833  0.000147761
      2.31910  0.000147623
      2.31988  0.000147894
      2.32065  0.000144765
      2.32142  0.000147630
      2.32220  0.000146715
      2.32297  0.000138873
      2.32374  0.000142583
      2.32452  0.000144952
      2.32529  0.000144752
      2.32607  0.000142878
      2.32685  0.000146764
      2.32762  0.000146894
      2.32840  0.000144652
      2.32917  0.000145675
      2.32995  0.000145960
      2.33073  0.000144177
      2.33150  0.000147040
      2.33228  0.000146446
      2.33306  0.000146771
      2.33383  0.000147360
      2.33461  0.000144226
      2.33539  0.000145764
      2.33617  0.000147731
      2.33695  0.000145339
      2.33773  0.000146303
      2.33851  0.000145401
      2.33928  0.000146001
      2.34006  0.000145672
      2.34084  0.000147650
      2.34162  0.000146688
      2.34241  0.000148738
      2.34319  0.000148609
      2.34397  0.000146320
      2.34475  0.000143938
      2.34553  0.000146558
      2.34631  0.000150192
      2.34709  0.000147367
      2.34788  0.000147487
      2.34866  0.000149901
      2.34944  0.000146740
      2.35023  0.000149268
      2.35101  0.000145353
      2.35179  0.000146752
      2.35258  0.000139724
      2.35336  0.000144782
      2.35415  0.000142636
      2.35493  0.000146788
      2.35571  0.000146487
      2.35650  0.000146080
      2.35729  0.000146780
      2.35807  0.000146340
      2.35886  0.000143913
      2.35964  0.000147081
      2.36043  0.000146468
      2.36122  0.000146443
      2.36200  0.000148140
      2.36279  0.000145584
      2.36358  0.000148583
      2.36437  0.000149159
      2.36516  0.000148245
      2.36594  0.000149634
      2.36673  0.000149184
      2.36752  0.000143647
      2.36831  0.000149727
      2.36910  0.000146945
      2.36989  0.000147416
      2.37068  0.000150510
      2.37147  0.000148582
      2.37226  0.000149213
      2.37305  0.000150707
      2.37384  0.000149150
      2.37463  0.000148547
      2.37543  0.000147730
      2.37622  0.000149014
      2.37701  0.000147000
      2.37780  0.000150855
      2.37859  0.000148034
      2.37939  0.000148168
      2.38018  0.000150671
      2.38097  0.000146687
      2.38177  0.000148184
      2.38256  0.000144806
      2.38336  0.000142370
      2.38415  0.000144755
      2.38494  0.000145957
      2.38574  0.000146772
      2.38653  0.000144877
      2.38733  0.000144227
      2.38812  0.000143232
      2.38892  0.000146386
      2.38972  0.000148176
      2.39052  0.000148982
      2.39131  0.000145568
      2.39211  0.000145094
      2.39291  0.000146577
      2.39370  0.000149735
      2.39450  0.000149703
      2.39530  0.000147459
      2.39610  0.000146538
      2.39690  0.000145058
      2.39770  0.000147772
      2.39849  0.000147729
      2.39929  0.000144840
      2.40009  0.000146223
      2.40089  0.000146290
      2.40169  0.000147895
      2.40249  0.000141381
      2.40330  0.000149840
      2.40410  0.000143793
      2.40490  0.000143628
      2.40570  0.000144383
      2.40650  0.000146244
      2.40730  0.000145499
      2.40811  0.000142203
      2.40891  0.000141894
      2.40971  0.000145054
      2.41052  0.000141615
      2.41132  0.000147842
      2.41212  0.000145644
      2.41293  0.000140432
      2.41373  0.000144095
      2.41454  0.000139154
      2.41534  0.000148707
      2.41615  0.000142919
      2.41695  0.000140038
      2.41776  0.000140530
      2.41856  0.000149701
      2.41937  0.000140116
      2.42017  0.000146621
      2.42098  0.000146974
      2.42179  0.000137339
      2.42260  0.000142158
      2.42340  0.000139966
      2.42421  0.000149584
      2.42502  0.000142451
      2.42583  0.000141278
      2.42664  0.000137114
      2.42745  0.000144264
      2.42825  0.000137822
      2.42906  0.000145464
      2.42987  0.000141317
      2.43068  0.000145414
      2.43149  0.000136415
      2.43230  0.000146065
      2.43312  0.000141604
      2.43393  0.000136202
      2.43474  0.000142129
      2.43555  0.000144471
      2.43636  0.000140898
      2.43717  0.000129285
      2.43798  0.000139843
      2.43880  0.000148997
      2.43961  0.000146205
      2.44042  0.000138714
      2.44124  0.000140072
      2.44205  0.000142298
      2.44287  0.000136714
      2.44368  0.000136636
      2.44449  0.000134013
      2.44531  0.000144157
      2.44612  0.000140475
      2.44694  0.000145266
      2.44775  0.000135998
      2.44857  0.000135686
      2.44939  0.000140433
      2.45020  0.000139539
      2.45102  0.000144464
      2.45184  0.000136241
      2.45265  0.000133026
      2.45347  0.000138127
      2.45429  0.000125093
      2.45511  0.000134462
      2.45593  0.000140178
      2.45674  0.000145618
      2.45756  0.000144666
      2.45838  0.000143999
      2.45920  0.000141420
      2.46002  0.000134177
      2.46084  0.000123723
      2.46166  0.000126005
      2.46248  0.000147033
      2.46330  0.000140540
      2.46412  0.000145427
      2.46495  0.000140930
      2.46577  0.000136260
      2.46659  0.000136204
      2.46741  0.000128758
      2.46823  0.000131520
      2.46906  0.000144121
      2.46988  0.000135323
      2.47070  0.000138873
      2.47153  0.000140572
      2.47235  0.000137411
      2.47317  0.000143750
      2.47400  0.000122854
      2.47483  0.000126219
      2.47565  0.000135594
      2.47647  0.000136764
      2.47730  0.000139558
      2.47813  0.000142900
      2.47895  0.000134219
      2.47978  0.000135187
      2.48060  0.000135309
      2.48143  0.000125570
      2.48226  0.000126460
      2.48309  0.000137464
      2.48391  0.000146754
      2.48474  0.000137009
      2.48557  0.000137253
      2.48640  0.000128112
      2.48723  0.000127252
      2.48806  0.000128369
      2.48889  0.000132448
      2.48972  0.000122709
      2.49055  0.000124628
      2.49138  0.000127921
      2.49221  0.000130687
      2.49304  0.000130186
      2.49387  0.000135287
      2.49470  0.000131097
      2.49553  0.000132492
      2.49636  0.000132987
      2.49719  0.000136073
      2.49803  0.000117616
      2.49886  0.000131071
      2.49966  0.000132883
      2.50052  0.000128369
      2.50136  0.000134719
      2.50219  0.000133436
      2.50302  0.000132908
      2.50386  0.000126543
      2.50470  0.000128443
      2.50553  0.000125103
      2.50636  0.000115389
      2.50720  0.000135041
      2.50804  0.000132329
      2.50887  0.000137385
      2.50971  0.000136296
      2.51055  0.000131510
      2.51139  0.000132561
      2.51222  0.000123312
      2.51306  0.000128606
      2.51390  0.000131610
      2.51474  0.000126007
      2.51557  0.000119660
      2.51641  0.000132115
      2.51725  0.000140666
      2.51809  0.000134857
      2.51892  0.000137846
      2.51976  0.000123625
      2.52061  0.000125356
      2.52145  0.000139355
      2.52229  0.000132584
      2.52312  0.000134289
      2.52397  0.000122479
      2.52481  0.000126195
      2.52565  0.000126549
      2.52649  0.000131247
      2.52734  0.000127512
      2.52818  0.000123594
      2.52902  0.000126206
      2.52986  0.000136332
      2.53071  0.000138893
      2.53155  0.000126210
      2.53239  0.000140099
      2.53324  0.000124506
      2.53408  0.000136626
      2.53493  0.000128380
      2.53577  0.000126334
      2.53662  0.000126542
      2.53746  0.000125174
      2.53831  0.000135857
      2.53916  0.000125249
      2.54001  0.000132769
      2.54085  0.000128185
      2.54169  0.000133957
      2.54254  0.000130679
      2.54339  0.000121740
      2.54424  0.000130955
      2.54509  0.000138960
      2.54593  0.000132824
      2.54678  0.000128808
      2.54763  0.000136739
      2.54848  0.000130209
      2.54933  0.000130298
      2.55018  0.000131415
      2.55103  0.000132570
      2.55188  0.000131891
      2.55273  0.000129149
      2.55358  0.000134536
      2.55443  0.000137335
      2.55528  0.000132130
      2.55614  0.000131305
      2.55699  0.000133941
      2.55784  0.000134252
      2.55869  0.000137857
      2.55954  0.000132884
      2.56040  0.000126442
      2.56126  0.000124322
      2.56211  0.000139537
      2.56296  0.000123704
      2.56382  0.000134701
      2.56467  0.000126887
      2.56552  0.000139279
      2.56638  0.000130560
      2.56724  0.000133588
      2.56809  0.000135676
      2.56895  0.000129482
      2.56981  0.000124100
      2.57066  0.000144549
      2.57152  0.000147759
      2.57237  0.000137174
      2.57323  0.000130422
      2.57409  0.000133552
      2.57495  0.000131603
      2.57581  0.000130264
      2.57666  0.000128153
      2.57752  0.000126155
      2.57839  0.000131010
      2.57924  0.000132524
      2.58010  0.000144402
      2.58096  0.000138178
      2.58183  0.000133227
      2.58269  0.000131415
      2.58355  0.000131936
      2.58441  0.000138968
      2.58526  0.000136371
      2.58612  0.000149313
      2.58699  0.000132203
      2.58785  0.000135953
      2.58871  0.000133258
      2.58957  0.000131254
      2.59044  0.000139453
      2.59130  0.000140122
      2.59217  0.000138733
      2.59304  0.000131743
      2.59390  0.000142001
      2.59476  0.000129197
      2.59562  0.000137072
      2.59649  0.000141959
      2.59736  0.000133166
      2.59822  0.000130984
      2.59909  0.000134698
      2.59996  0.000146493
      2.60082  0.000141373
      2.60169  0.000137760
      2.60256  0.000146043
      2.60342  0.000136029
      2.60429  0.000137365
      2.60516  0.000140991
      2.60603  0.000135401
      2.60690  0.000142265
      2.60777  0.000133440
      2.60864  0.000127090
      2.60951  0.000136263
      2.61037  0.000144010
      2.61124  0.000148937
      2.61212  0.000148684
      2.61299  0.000137386
      2.61386  0.000145206
      2.61473  0.000139035
      2.61560  0.000145888
      2.61647  0.000141729
      2.61734  0.000139545
      2.61822  0.000135754
      2.61909  0.000134279
      2.61996  0.000137689
      2.62083  0.000139922
      2.62171  0.000133814
      2.62258  0.000137263
      2.62346  0.000142446
      2.62433  0.000140014
      2.62521  0.000137008
      2.62608  0.000140496
      2.62696  0.000137995
      2.62783  0.000143140
      2.62871  0.000144270
      2.62958  0.000143999
      2.63046  0.000131728
      2.63134  0.000143665
      2.63222  0.000141479
      2.63309  0.000144414
      2.63397  0.000137980
      2.63485  0.000137354
      2.63573  0.000140758
      2.63661  0.000145128
      2.63748  0.000144088
      2.63836  0.000138972
      2.63924  0.000145660
      2.64012  0.000139916
      2.64101  0.000136203
      2.64188  0.000134460
      2.64276  0.000143792
      2.64364  0.000143924
      2.64452  0.000146751
      2.64541  0.000137806
      2.64629  0.000140224
      2.64717  0.000145544
      2.64805  0.000140978
      2.64894  0.000141956
      2.64982  0.000144662
      2.65070  0.000143743
      2.65159  0.000139916
      2.65247  0.000137731
      2.65335  0.000149815
      2.65424  0.000146018
      2.65512  0.000138634
      2.65601  0.000143724
      2.65689  0.000135761
      2.65777  0.000148695
      2.65866  0.000149000
      2.65955  0.000146229
      2.66044  0.000137306
      2.66132  0.000140337
      2.66221  0.000149763
      2.66310  0.000149928
      2.66399  0.000144835
      2.66487  0.000137156
      2.66576  0.000145399
      2.66665  0.000145451
      2.66754  0.000143498
      2.66842  0.000146830
      2.66932  0.000146033
      2.67021  0.000133820
      2.67110  0.000135426
      2.67199  0.000155070
      2.67288  0.000148987
      2.67377  0.000146238
      2.67466  0.000145828
      2.67555  0.000142760
      2.67644  0.000138264
      2.67734  0.000126061
      2.67823  0.000144418
      2.67912  0.000144108
      2.68002  0.000146181
      2.68091  0.000147849
      2.68181  0.000135165
      2.68270  0.000144321
      2.68359  0.000142456
      2.68449  0.000138129
      2.68538  0.000143891
      2.68628  0.000132987
      2.68717  0.000146249
      2.68807  0.000142715
      2.68896  0.000150152
      2.68986  0.000150387
      2.69076  0.000139871
      2.69166  0.000141523
      2.69255  0.000144287
      2.69344  0.000127128
      2.69434  0.000135549
      2.69524  0.000134870
      2.69614  0.000131286
      2.69704  0.000141493
      2.69794  0.000139177
      2.69884  0.000135591
      2.69974  0.000146479
      2.70064  0.000151197
      2.70154  0.000129735
      2.70244  0.000139390
      2.70334  0.000127522
      2.70424  0.000140668
      2.70514  0.000128735
      2.70604  0.000139692
      2.70694  0.000142007
      2.70785  0.000145471
      2.70876  0.000137469
      2.70966  0.000144146
      2.71056  0.000139564
      2.71146  0.000132055
      2.71237  0.000129578
      2.71327  0.000140297
      2.71417  0.000133921
      2.71508  0.000136386
      2.71598  0.000138647
      2.71689  0.000141512
      2.71779  0.000127109
      2.71870  0.000137904
      2.71961  0.000144495
      2.72051  0.000132305
      2.72142  0.000144964
      2.72232  0.000134089
      2.72324  0.000133020
      2.72414  0.000128674
      2.72505  0.000137894
      2.72596  0.000125171
      2.72687  0.000140625
      2.72777  0.000137781
      2.72869  0.000126570
      2.72959  0.000129288
      2.73050  0.000129271
      2.73141  0.000145910
      2.73232  0.000141428
      2.73324  0.000136934
      2.73415  0.000146030
      2.73506  0.000130679
      2.73597  0.000122528
      2.73689  0.000124722
      2.73780  0.000137463
      2.73871  0.000121789
      2.73962  0.000135281
      2.74054  0.000123084
      2.74145  0.000134308
      2.74236  0.000138132
      2.74327  0.000142613
      2.74419  0.000135461
      2.74510  0.000135868
      2.74602  0.000136890
      2.74694  0.000140601
      2.74785  0.000133574
      2.74876  0.000142280
      2.74968  0.000133808
      2.75060  0.000126222
      2.75151  0.000137062
      2.75243  0.000135064
      2.75335  0.000140534
      2.75427  0.000134049
      2.75519  0.000127480
      2.75611  0.000131160
      2.75703  0.000148766
      2.75794  0.000133030
      2.75886  0.000145178
      2.75978  0.000141984
      2.76070  0.000143857
      2.76162  0.000138451
      2.76254  0.000141499
      2.76346  0.000147868
      2.76438  0.000129372
      2.76531  0.000137589
      2.76623  0.000133385
      2.76715  0.000133894
      2.76807  0.000129322
      2.76899  0.000142060
      2.76992  0.000130765
      2.77084  0.000133312
      2.77177  0.000136196
      2.77269  0.000142854
      2.77361  0.000135354
      2.77453  0.000152198
      2.77546  0.000138820
      2.77638  0.000135704
      2.77731  0.000142651
      2.77824  0.000130456
      2.77917  0.000132191
      2.78009  0.000135637
      2.78102  0.000137105
      2.78194  0.000135145
      2.78287  0.000138198
      2.78380  0.000140648
      2.78473  0.000135490
      2.78566  0.000128870
      2.78658  0.000119090
      2.78751  0.000135882
      2.78844  0.000127874
      2.78937  0.000129346
      2.79030  0.000138347
      2.79123  0.000133341
      2.79216  0.000126501
      2.79309  0.000135430
      2.79402  0.000137198
      2.79496  0.000138265
      2.79589  0.000129933
      2.79682  0.000135946
      2.79775  0.000126606
      2.79868  0.000134556
      2.79961  0.000138904
      2.80055  0.000125975
      2.80148  0.000126419
      2.80241  0.000116358
      2.80335  0.000122719
      2.80429  0.000119142
      2.80522  0.000114108
      2.80615  0.000124903
      2.80709  0.000132300
      2.80802  0.000128850
      2.80896  0.000120583
      2.80990  0.000129858
      2.81084  0.000125212
      2.81177  0.000129279
      2.81271  0.000128431
      2.81365  0.000116851
      2.81459  0.000124495
      2.81552  0.000127267
      2.81646  0.000126983
      2.81740  0.000116750
      2.81834  0.000121439
      2.81927  0.000108727
      2.82022  0.000112303
      2.82116  0.000115973
      2.82210  0.000117388
      2.82304  0.000118790
      2.82398  0.000120543
      2.82492  0.000121664
      2.82586  0.000117314
      2.82681  0.000115147
      2.82775  0.000113928
      2.82869  0.000123976
      2.82963  0.000121148
      2.83057  0.000115826
      2.83152  0.000118725
      2.83246  0.000123125
      2.83341  0.000113459
      2.83435  0.000112795
      2.83529  0.000104846
      2.83624  0.000105819
      2.83719  0.000108825
      2.83813  0.000103737
      2.83908  0.000115334
      2.84002  0.000116862
      2.84097  0.000110797
      2.84192  0.000114541
      2.84287  0.000108129
      2.84382  0.000107445
      2.84476  0.000109922
      2.84571  0.000107672
      2.84666  0.000109897
      2.84761  0.000110161
      2.84856  0.000111553
      2.84951  0.000100215
      2.85046  9.90000e-05
      2.85141  0.000106101
      2.85236  0.000102512
      2.85331  9.70915e-05
      2.85426  9.61480e-05
      2.85521  9.46128e-05
      2.85616  9.64626e-05
      2.85712  9.53798e-05
      2.85807  0.000107011
      2.85902  0.000109046
      2.85997  0.000105394
      2.86092  0.000102702
      2.86188  9.76563e-05
      2.86283  0.000103816
      2.86379  9.83283e-05
      2.86474  9.66525e-05
      2.86569  9.60541e-05
      2.86665  9.44278e-05
      2.86761  9.34008e-05
      2.86856  9.10094e-05
      2.86952  9.08856e-05
      2.87047  9.17759e-05
      2.87143  8.54641e-05
      2.87239  8.59095e-05
      2.87335  8.29578e-05
      2.87431  8.70068e-05
      2.87526  9.33473e-05
      2.87622  9.66712e-05
      2.87718  9.35477e-05
      2.87814  8.60782e-05
      2.87910  9.32582e-05
      2.88006  8.90446e-05
      2.88102  8.56764e-05
      2.88197  9.06991e-05
      2.88294  8.40516e-05
      2.88390  8.44404e-05
      2.88486  8.78973e-05
      2.88582  7.53266e-05
      2.88679  8.29950e-05
      2.88775  8.28806e-05
      2.88871  7.62954e-05
      2.88967  7.31941e-05
      2.89064  7.77215e-05
      2.89160  7.47198e-05
      2.89256  7.84465e-05
      2.89352  7.82443e-05
      2.89449  8.63361e-05
      2.89546  7.92292e-05
      2.89643  8.01024e-05
      2.89739  8.22104e-05
      2.89836  7.88433e-05
      2.89932  6.85475e-05
      2.90029  7.44790e-05
      2.90125  7.22835e-05
      2.90222  7.23285e-05
      2.90319  7.71717e-05
      2.90416  6.78888e-05
      2.90512  7.48212e-05
      2.90609  7.39637e-05
      2.90706  6.90998e-05
      2.90803  6.19876e-05
      2.90900  6.31955e-05
      2.90997  6.26459e-05
      2.91094  6.85731e-05
      2.91191  7.39626e-05
      2.91288  7.25975e-05
      2.91385  7.17416e-05
      2.91482  7.19226e-05
      2.91579  6.95073e-05
      2.91677  6.53343e-05
      2.91774  6.82165e-05
      2.91871  6.69177e-05
      2.91968  6.55700e-05
      2.92066  6.38906e-05
      2.92163  6.20842e-05
      2.92261  6.12375e-05
      2.92358  6.17016e-05
      2.92456  6.05562e-05
      2.92553  6.32735e-05
      2.92651  6.32329e-05
      2.92748  5.63170e-05
      2.92846  5.99461e-05
      2.92943  5.15677e-05
      2.93041  6.30992e-05
      2.93138  6.37323e-05
      2.93236  6.12939e-05
      2.93334  6.19052e-05
      2.93432  5.67458e-05
      2.93529  6.04268e-05
      2.93627  5.89541e-05
      2.93725  5.93227e-05
      2.93823  5.89429e-05
      2.93921  6.01033e-05
      2.94019  5.49134e-05
      2.94117  5.45560e-05
      2.94215  5.49990e-05
      2.94313  5.65957e-05
      2.94411  5.32184e-05
      2.94509  5.40636e-05
      2.94607  5.76741e-05
      2.94706  4.84468e-05
      2.94804  5.34995e-05
      2.94902  4.97959e-05
      2.95001  5.75975e-05
      2.95099  5.52290e-05
      2.95197  5.57231e-05
      2.95296  5.63120e-05
      2.95394  5.25827e-05
      2.95492  5.31666e-05
      2.95591  5.05778e-05
      2.95690  5.50125e-05
      2.95788  5.74207e-05
      2.95886  5.36960e-05
      2.95985  5.21121e-05
      2.96084  5.04348e-05
      2.96182  5.39173e-05
      2.96281  5.13058e-05
      2.96380  4.96295e-05
      2.96479  5.54305e-05
      2.96578  5.25985e-05
      2.96676  4.83381e-05
      2.96775  5.44641e-05
      2.96874  4.63315e-05
      2.96974  5.12409e-05
      2.97072  5.11851e-05
      2.97171  4.96402e-05
      2.97271  5.16384e-05
      2.97370  5.49258e-05
      2.97469  5.08487e-05
      2.97567  5.56385e-05
      2.97667  5.09885e-05
      2.97766  5.54667e-05
      2.97866  5.08703e-05
      2.97965  5.17673e-05
      2.98064  5.34193e-05
      2.98164  4.99683e-05
      2.98263  5.14250e-05
      2.98362  4.87690e-05
      2.98462  5.21663e-05
      2.98561  5.15320e-05
      2.98661  4.87193e-05
      2.98761  4.64182e-05
      2.98860  4.63437e-05
      2.98959  4.51560e-05
      2.99059  4.86379e-05
      2.99159  5.04353e-05
      2.99258  5.17034e-05
      2.99358  5.23281e-05
      2.99458  5.24047e-05
      2.99558  5.04086e-05
      2.99658  4.92319e-05
      2.99758  5.11728e-05
      2.99858  4.83602e-05
      2.99958  5.02256e-05
      3.00058  4.80769e-05
      3.00157  4.81753e-05
      3.00258  5.02013e-05
      3.00358  4.58360e-05
      3.00458  4.74687e-05
      3.00558  4.89851e-05
      3.00658  4.80699e-05
      3.00758  4.31621e-05
      3.00858  4.35464e-05
      3.00958  4.27112e-05
      3.01059  4.66135e-05
      3.01160  4.66496e-05
      3.01260  4.77766e-05
      3.01360  4.85838e-05
      3.01461  5.21547e-05
      3.01561  4.88723e-05
      3.01662  5.07898e-05
      3.01762  4.88263e-05
      3.01863  4.91091e-05
      3.01963  4.93059e-05
      3.02064  4.76956e-05
      3.02164  4.65502e-05
      3.02266  4.34408e-05
      3.02367  4.59692e-05
      3.02467  4.77303e-05
      3.02568  4.55112e-05
      3.02668  4.32113e-05
      3.02770  4.88947e-05
      3.02871  4.40591e-05
      3.02971  4.41064e-05
      3.03073  4.55254e-05
      3.03174  4.46272e-05
      3.03274  4.98554e-05
      3.03376  4.72464e-05
      3.03477  4.75263e-05
      3.03578  4.64896e-05
      3.03679  4.67152e-05
      3.03781  4.97378e-05
      3.03882  4.61198e-05
      3.03983  4.83897e-05
      3.04084  4.78292e-05
      3.04186  4.51093e-05
      3.04287  4.49099e-05
      3.04388  4.57708e-05
      3.04490  4.27578e-05
      3.04591  4.51039e-05
      3.04693  4.79150e-05
      3.04795  4.38509e-05
      3.04897  4.34652e-05
      3.04998  4.29135e-05
      3.05099  4.30104e-05
      3.05201  4.69009e-05
      3.05303  4.34468e-05
      3.05405  4.86689e-05
      3.05506  4.91200e-05
      3.05608  5.06677e-05
      3.05710  4.87029e-05
      3.05812  4.74803e-05
      3.05914  4.52070e-05
      3.06016  4.76264e-05
      3.06118  4.90929e-05
      3.06220  4.76149e-05
      3.06322  5.11473e-05
      3.06424  4.55742e-05
      3.06526  4.34810e-05
      3.06629  4.58649e-05
      3.06731  4.91179e-05
      3.06833  4.76155e-05
      3.06935  4.60152e-05
      3.07037  4.59369e-05
      3.07140  4.50670e-05
      3.07243  4.56694e-05
      3.07345  4.37829e-05
      3.07447  4.69068e-05
      3.07550  4.68855e-05
      3.07652  4.97974e-05
      3.07755  4.92365e-05
      3.07858  4.95467e-05
      3.07960  5.03050e-05
      3.08062  4.90605e-05
      3.08165  5.11232e-05
      3.08268  4.77380e-05
      3.08371  4.86200e-05
      3.08473  4.62614e-05
      3.08576  4.68388e-05
      3.08679  4.88180e-05
      3.08782  4.77336e-05
      3.08885  4.82110e-05
      3.08988  4.74446e-05
      3.09091  4.49178e-05
      3.09194  4.63615e-05
      3.09297  5.06917e-05
      3.09400  5.18530e-05
      3.09503  4.67370e-05
      3.09606  4.96752e-05
      3.09710  4.80152e-05
      3.09813  4.86184e-05
      3.09916  5.08874e-05
      3.10020  5.26800e-05
      3.10123  5.38237e-05
      3.10226  5.16181e-05
      3.10329  5.28579e-05
      3.10432  5.40037e-05
      3.10536  5.23330e-05
      3.10640  4.97764e-05
      3.10743  5.23777e-05
      3.10847  5.01266e-05
      3.10951  5.38598e-05
      3.11055  4.89821e-05
      3.11158  5.35490e-05
      3.11262  5.24856e-05
      3.11365  5.12105e-05
      3.11469  4.85578e-05
      3.11573  5.50852e-05
      3.11677  5.22338e-05
      3.11781  5.29539e-05
      3.11884  5.04473e-05
      3.11989  5.62691e-05
      3.12093  5.21160e-05
      3.12196  5.63069e-05
      3.12301  5.61883e-05
      3.12405  5.65406e-05
      3.12509  5.68899e-05
      3.12613  5.69960e-05
      3.12718  5.67262e-05
      3.12822  5.47432e-05
      3.12926  5.36292e-05
      3.13030  5.16826e-05
      3.13135  5.15945e-05
      3.13239  5.43302e-05
      3.13343  5.26310e-05
      3.13448  5.74499e-05
      3.13552  5.21241e-05
      3.13657  5.82871e-05
      3.13762  5.48645e-05
      3.13866  5.86142e-05
      3.13970  6.12734e-05
      3.14075  5.92675e-05
      3.14180  5.75785e-05
      3.14285  5.92216e-05
      3.14390  5.45652e-05
      3.14494  5.90800e-05
      3.14599  6.13849e-05
      3.14704  6.02011e-05
      3.14809  5.77730e-05
      3.14914  5.97453e-05
      3.15019  6.08960e-05
      3.15124  6.39933e-05
      3.15229  6.00452e-05
      3.15334  5.88169e-05
      3.15439  5.88265e-05
      3.15544  5.94824e-05
      3.15649  5.80952e-05
      3.15755  5.82767e-05
      3.15860  6.17720e-05
      3.15965  6.30370e-05
      3.16070  6.41700e-05
      3.16176  6.35136e-05
      3.16282  6.46772e-05
      3.16387  6.49171e-05
      3.16492  6.22145e-05
      3.16597  6.36856e-05
      3.16703  6.42561e-05
      3.16809  6.34443e-05
      3.16915  6.27367e-05
      3.17020  6.58669e-05
      3.17125  6.56207e-05
      3.17231  6.47465e-05
      3.17337  6.52586e-05
      3.17443  6.41632e-05
      3.17548  6.87277e-05
      3.17655  6.36138e-05
      3.17761  6.45433e-05
      3.17866  6.04344e-05
      3.17972  6.38822e-05
      3.18078  6.36717e-05
      3.18184  6.74152e-05
      3.18291  6.67585e-05
      3.18397  6.69015e-05
      3.18502  6.73790e-05
      3.18609  6.66670e-05
      3.18716  7.16829e-05
      3.18821  7.17698e-05
      3.18927  6.40945e-05
      3.19033  7.01476e-05
      3.19140  7.13787e-05
      3.19246  6.59071e-05
      3.19353  6.99758e-05
      3.19459  6.81163e-05
      3.19566  7.15172e-05
      3.19672  7.22544e-05
      3.19779  7.09231e-05
      3.19885  7.12067e-05
      3.19992  6.61978e-05
      3.20098  6.95641e-05
      3.20206  6.92480e-05
      3.20313  7.15733e-05
      3.20419  7.14254e-05
      3.20526  7.24923e-05
      3.20632  7.71989e-05
      3.20740  7.53467e-05
      3.20847  7.60424e-05
      3.20953  7.66371e-05
      3.21061  7.39537e-05
      3.21168  7.65185e-05
      3.21274  7.66288e-05
      3.21382  7.74835e-05
      3.21489  7.15877e-05
      3.21596  7.95274e-05
      3.21703  7.69495e-05
      3.21811  7.44102e-05
      3.21918  7.52875e-05
      3.22025  7.75813e-05
      3.22132  7.53163e-05
      3.22240  7.77187e-05
      3.22347  7.89884e-05
      3.22454  7.60483e-05
      3.22562  7.97120e-05
      3.22669  7.73118e-05
      3.22777  7.84887e-05
      3.22885  7.14300e-05
      3.22993  7.88274e-05
      3.23100  8.45723e-05
      3.23207  7.61513e-05
      3.23315  7.69082e-05
      3.23423  8.19679e-05
      3.23531  8.28577e-05
      3.23639  8.10609e-05
      3.23747  8.10318e-05
      3.23855  7.92835e-05
      3.23963  7.91386e-05
      3.24071  8.10819e-05
      3.24179  8.37183e-05
      3.24287  8.01661e-05
      3.24395  8.24848e-05
      3.24503  7.85339e-05
      3.24611  8.10182e-05
      3.24719  8.43688e-05
      3.24827  8.55894e-05
      3.24935  8.48749e-05
      3.25044  8.15530e-05
      3.25153  8.78824e-05
      3.25261  8.59525e-05
      3.25369  8.67608e-05
      3.25477  8.55373e-05
      3.25586  8.80358e-05
      3.25695  8.85354e-05
      3.25804  8.72024e-05
      3.25912  8.89807e-05
      3.26020  8.79420e-05
      3.26129  8.90695e-05
      3.26238  9.02108e-05
      3.26347  8.81445e-05
      3.26455  8.67132e-05
      3.26564  8.76869e-05
      3.26673  9.02162e-05
      3.26782  9.07878e-05
      3.26890  8.53429e-05
      3.27000  8.89663e-05
      3.27109  8.84397e-05
      3.27217  9.36185e-05
      3.27327  9.30439e-05
      3.27436  8.87207e-05
      3.27545  8.82245e-05
      3.27654  8.96747e-05
      3.27763  9.10181e-05
      3.27873  9.07242e-05
      3.27982  9.19655e-05
      3.28092  8.74157e-05
      3.28201  8.60665e-05
      3.28311  9.51212e-05
      3.28420  8.99318e-05
      3.28528  9.20851e-05
      3.28639  8.95561e-05
      3.28749  8.67963e-05
      3.28858  9.31834e-05
      3.28968  9.70298e-05
      3.29077  9.31342e-05
      3.29187  9.56841e-05
      3.29296  8.96476e-05
      3.29406  8.93451e-05
      3.29516  9.36963e-05
      3.29626  9.68191e-05
      3.29736  9.48167e-05
      3.29845  9.66016e-05
      3.29956  9.77743e-05
      3.30066  9.37613e-05
      3.30175  9.84822e-05
      3.30286  9.98383e-05
      3.30396  9.80312e-05
      3.30506  9.56134e-05
      3.30616  9.84350e-05
      3.30726  9.97886e-05
      3.30836  9.71155e-05
      3.30947  9.55192e-05
      3.31058  9.97592e-05
      3.31168  9.53155e-05
      3.31278  9.92589e-05
      3.31388  0.000100714
      3.31499  9.69233e-05
      3.31609  9.92456e-05
      3.31720  9.63539e-05
      3.31831  0.000102956
      3.31941  9.76873e-05
      3.32051  9.50048e-05
      3.32162  9.95847e-05
      3.32273  9.89711e-05
      3.32384  0.000101966
      3.32495  0.000101174
      3.32605  9.89741e-05
      3.32716  0.000100889
      3.32827  0.000103681
      3.32938  0.000105961
      3.33049  0.000101447
      3.33160  0.000103354
      3.33271  0.000104629
      3.33382  0.000105370
      3.33493  0.000104572
      3.33605  0.000101990
      3.33716  9.72027e-05
      3.33827  9.54959e-05
      3.33938  9.34018e-05
      3.34049  0.000101931
      3.34161  0.000101613
      3.34273  0.000103189
      3.34384  0.000100346
      3.34495  0.000104109
      3.34607  0.000107357
      3.34718  0.000109116
      3.34830  0.000105104
      3.34942  0.000106309
      3.35053  0.000107858
      3.35164  0.000108140
      3.35276  0.000109985
      3.35388  0.000106945
      3.35500  0.000107471
      3.35612  0.000107693
      3.35724  0.000105318
      3.35836  0.000108350
      3.35947  0.000111183
      3.36060  0.000109847
      3.36172  0.000110559
      3.36283  0.000109729
      3.36396  0.000109568
      3.36508  0.000111081
      3.36620  0.000109073
      3.36732  0.000112174
      3.36844  0.000112262
      3.36957  0.000111338
      3.37069  0.000113146
      3.37182  0.000112321
      3.37294  0.000111329
      3.37407  0.000115901
      3.37519  0.000113983
      3.37632  0.000111480
      3.37744  0.000111578
      3.37857  0.000112815
      3.37969  0.000114413
      3.38082  0.000115051
      3.38194  0.000112384
      3.38307  0.000117756
      3.38419  0.000115410
      3.38533  0.000114869
      3.38646  0.000115104
      3.38758  0.000117045
      3.38871  0.000118176
      3.38984  0.000117147
      3.39097  0.000120991
      3.39210  0.000114260
      3.39323  0.000109062
      3.39436  0.000113829
      3.39550  0.000112697
      3.39663  0.000110499
      3.39776  0.000110057
      3.39889  0.000112324
      3.40003  0.000120579
      3.40116  0.000117147
      3.40229  0.000121125
      3.40342  0.000119379
      3.40456  0.000120046
      3.40570  0.000119354
      3.40683  0.000119266
      3.40796  0.000119616
      3.40910  0.000121130
      3.41024  0.000121094
      3.41138  0.000122852
      3.41251  0.000121543
      3.41365  0.000116899
      3.41479  0.000119600
      3.41593  0.000123197
      3.41707  0.000122208
      3.41821  0.000123351
      3.41935  0.000122733
      3.42049  0.000124655
      3.42163  0.000125613
      3.42277  0.000126046
      3.42391  0.000126654
      3.42505  0.000123735
      3.42619  0.000126941
      3.42733  0.000125478
      3.42847  0.000125298
      3.42962  0.000128209
      3.43076  0.000124700
      3.43190  0.000127863
      3.43304  0.000127388
      3.43419  0.000126241
      3.43534  0.000129068
      3.43648  0.000127111
      3.43762  0.000128495
      3.43877  0.000128546
      3.43992  0.000128858
      3.44107  0.000127806
      3.44221  0.000129631
      3.44336  0.000129002
      3.44451  0.000126657
      3.44566  0.000128197
      3.44681  0.000128311
      3.44795  0.000126741
      3.44910  0.000124308
      3.45025  0.000132406
      3.45140  0.000130336
      3.45255  0.000124247
      3.45370  0.000126206
      3.45486  0.000131542
      3.45601  0.000122289
      3.45715  0.000123831
      3.45831  0.000122132
      3.45946  0.000126804
      3.46062  0.000126321
      3.46177  0.000133269
      3.46293  0.000132373
      3.46408  0.000134590
      3.46524  0.000126874
      3.46639  0.000134207
      3.46755  0.000135065
      3.46870  0.000135137
      3.46986  0.000137007
      3.47101  0.000132495
      3.47217  0.000136450
      3.47333  0.000136739
      3.47448  0.000133787
      3.47564  0.000135569
      3.47680  0.000136346
      3.47796  0.000135709
      3.47912  0.000136884
      3.48028  0.000137521
      3.48144  0.000132625
      3.48260  0.000135206
      3.48376  0.000138207
      3.48492  0.000133695
      3.48608  0.000137239
      3.48724  0.000134379
      3.48841  0.000138064
      3.48957  0.000138703
      3.49073  0.000136395
      3.49190  0.000135308
      3.49306  0.000136204
      3.49423  0.000138547
      3.49539  0.000140084
      3.49655  0.000138118
      3.49772  0.000138431
      3.49889  0.000135838
      3.50004  0.000137436
      3.50122  0.000138831
      3.50239  0.000141110
      3.50355  0.000141775
      3.50472  0.000138407
      3.50590  0.000139900
      3.50706  0.000141234
      3.50822  0.000132767
      3.50940  0.000137878
      3.51057  0.000133259
      3.51174  0.000138383
      3.51291  0.000132645
      3.51409  0.000137649
      3.51525  0.000141581
      3.51641  0.000141117
      3.51759  0.000140618
      3.51876  0.000135544
      3.51993  0.000128638
      3.52111  0.000133529
      3.52229  0.000130816
      3.52347  0.000139635
      3.52464  0.000133416
      3.52581  0.000142202
      3.52698  0.000140849
      3.52816  0.000139681
      3.52934  0.000142172
      3.53052  0.000144153
      3.53169  0.000144081
      3.53286  0.000144402
      3.53405  0.000141764
      3.53523  0.000142853
      3.53640  0.000142804
      3.53758  0.000140343
      3.53876  0.000140741
      3.53994  0.000143692
      3.54112  0.000143480
      3.54230  0.000142700
      3.54348  0.000145015
      3.54466  0.000139784
      3.54584  0.000143712
      3.54702  0.000144988
      3.54820  0.000144006
      3.54939  0.000144566
      3.55058  0.000143579
      3.55176  0.000143340
      3.55295  0.000141692
      3.55413  0.000143954
      3.55531  0.000146057
      3.55650  0.000143950
      3.55768  0.000144274
      3.55886  0.000144086
      3.56005  0.000142249
      3.56124  0.000146011
      3.56243  0.000143952
      3.56362  0.000146479
      3.56480  0.000145442
      3.56598  0.000145898
      3.56717  0.000145838
      3.56836  0.000145272
      3.56955  0.000140227
      3.57074  0.000137231
      3.57193  0.000139760
      3.57312  0.000139247
      3.57431  0.000141675
      3.57550  0.000139292
      3.57670  0.000140794
      3.57790  0.000146343
      3.57909  0.000145545
      3.58028  0.000147894
      3.58147  0.000145632
      3.58267  0.000145484
      3.58387  0.000148100
      3.58506  0.000146922
      3.58625  0.000145639
      3.58745  0.000138546
      3.58865  0.000140977
      3.58984  0.000138384
      3.59103  0.000144080
      3.59223  0.000139118
      3.59343  0.000145478
      3.59463  0.000148060
      3.59583  0.000147802
      3.59703  0.000144544
      3.59823  0.000147585
      3.59943  0.000147105
      3.60062  0.000144308
      3.60182  0.000147405
      3.60302  0.000143901
      3.60423  0.000149993
      3.60543  0.000149299
      3.60663  0.000146437
      3.60783  0.000149908
      3.60903  0.000148043
      3.61023  0.000150530
      3.61144  0.000148160
      3.61265  0.000148565
      3.61385  0.000146548
      3.61504  0.000146776
      3.61625  0.000147081
      3.61746  0.000146082
      3.61867  0.000149453
      3.61987  0.000148479
      3.62108  0.000149040
      3.62229  0.000146354
      3.62350  0.000147625
      3.62470  0.000149143
      3.62591  0.000146957
      3.62712  0.000148360
      3.62833  0.000150643
      3.62953  0.000149625
      3.63074  0.000148449
      3.63196  0.000145388
      3.63317  0.000145952
      3.63438  0.000149019
      3.63559  0.000138022
      3.63681  0.000137969
      3.63802  0.000140004
      3.63923  0.000149350
      3.64044  0.000140949
      3.64165  0.000149500
      3.64287  0.000150782
      3.64409  0.000150442
      3.64530  0.000149980
      3.64651  0.000148876
      3.64773  0.000147594
      3.64894  0.000149937
      3.65016  0.000146837
      3.65137  0.000149332
      3.65259  0.000148594
      3.65382  0.000149036
      3.65503  0.000147073
      3.65625  0.000149102
      3.65746  0.000146872
      3.65868  0.000141396
      3.65991  0.000137033
      3.66113  0.000147014
      3.66235  0.000139908
      3.66356  0.000149001
      3.66479  0.000149599
      3.66601  0.000149082
      3.66724  0.000149706
      3.66845  0.000151535
      3.66967  0.000150534
      3.67090  0.000150412
      3.67212  0.000150913
      3.67335  0.000148114
      3.67457  0.000149804
      3.67580  0.000148071
      3.67702  0.000148520
      3.67825  0.000150550
      3.67947  0.000148383
      3.68070  0.000149601
      3.68192  0.000150087
      3.68315  0.000150886
      3.68439  0.000148719
      3.68561  0.000149540
      3.68684  0.000151671
      3.68806  0.000151518
      3.68930  0.000150260
      3.69053  0.000149580
      3.69176  0.000149473
      3.69299  0.000150066
      3.69422  0.000148372
      3.69545  0.000147284
      3.69668  0.000147178
      3.69792  0.000150078
      3.69915  0.000144460
      3.70038  0.000147457
      3.70162  0.000148653
      3.70285  0.000151269
      3.70408  0.000145204
      3.70532  0.000149069
      3.70655  0.000139432
      3.70779  0.000145473
      3.70902  0.000143299
      3.71026  0.000151708
      3.71150  0.000151438
      3.71273  0.000149999
      3.71397  0.000149190
      3.71521  0.000151760
      3.71645  0.000150166
      3.71768  0.000148803
      3.71892  0.000150106
      3.72017  0.000149830
      3.72141  0.000150583
      3.72265  0.000149249
      3.72389  0.000151326
      3.72513  0.000151572
      3.72636  0.000150595
      3.72760  0.000152118
      3.72885  0.000151162
      3.73009  0.000152183
      3.73134  0.000150888
      3.73259  0.000142131
      3.73383  0.000145438
      3.73508  0.000140490
      3.73632  0.000148477
      3.73756  0.000143295
      3.73880  0.000150491
      3.74006  0.000151205
      3.74131  0.000150645
      3.74255  0.000149966
      3.74379  0.000151522
      3.74504  0.000148185
      3.74629  0.000150536
      3.74754  0.000152082
      3.74879  0.000151882
      3.75004  0.000152141
      3.75129  0.000151242
      3.75254  0.000152157
      3.75379  0.000150801
      3.75504  0.000150894
      3.75630  0.000149757
      3.75755  0.000151212
      3.75880  0.000151896
      3.76005  0.000151648
      3.76130  0.000151939
      3.76256  0.000146455
      3.76381  0.000145625
      3.76506  0.000150782
      3.76632  0.000147012
      3.76758  0.000147165
      3.76883  0.000150194
      3.77009  0.000148993
      3.77135  0.000150459
      3.77261  0.000151048
      3.77387  0.000146078
      3.77513  0.000151757
      3.77639  0.000147158
      3.77765  0.000149620
      3.77890  0.000140099
      3.78015  0.000149266
      3.78141  0.000145603
      3.78268  0.000150825
      3.78395  0.000150562
      3.78521  0.000152598
      3.78647  0.000150294
      3.78773  0.000150996
      3.78899  0.000151820
      3.79025  0.000150715
      3.79151  0.000151422
      3.79277  0.000151133
      3.79404  0.000151865
      3.79530  0.000151204
      3.79657  0.000150136
      3.79784  0.000151982
      3.79910  0.000151376
      3.80037  0.000148469
      3.80164  0.000152661
      3.80290  0.000151574
      3.80417  0.000152276
      3.80544  0.000149335
      3.80670  0.000150014
      3.80797  0.000148200
      3.80924  0.000151909
      3.81051  0.000143131
      3.81178  0.000147821
      3.81306  0.000137555
      3.81433  0.000152507
      3.81559  0.000142822
      3.81687  0.000150611
      3.81814  0.000150971
      3.81941  0.000151839
      3.82069  0.000150700
      3.82196  0.000151736
      3.82323  0.000149988
      3.82450  0.000151843
      3.82578  0.000149599
      3.82706  0.000149541
      3.82833  0.000150844
      3.82961  0.000149075
      3.83089  0.000150568
      3.83217  0.000149770
      3.83344  0.000147503
      3.83472  0.000145613
      3.83600  0.000145591
      3.83728  0.000149909
      3.83855  0.000147497
      3.83983  0.000149096
      3.84111  0.000149255
      3.84240  0.000150021
      3.84368  0.000151437
      3.84496  0.000152061
      3.84624  0.000148999
      3.84752  0.000149945
      3.84881  0.000149200
      3.85009  0.000149810
      3.85137  0.000150615
      3.85266  0.000144871
      3.85394  0.000148025
      3.85522  0.000141062
      3.85651  0.000151199
      3.85780  0.000144799
      3.85908  0.000150715
      3.86037  0.000151836
      3.86165  0.000152178
      3.86294  0.000148964
      3.86423  0.000149942
      3.86551  0.000149752
      3.86681  0.000149765
      3.86809  0.000149162
      3.86938  0.000150400
      3.87068  0.000150242
      3.87196  0.000148292
      3.87325  0.000149984
      3.87454  0.000150131
      3.87584  0.000149953
      3.87713  0.000149601
      3.87842  0.000149853
      3.87971  0.000149644
      3.88100  0.000149972
      3.88230  0.000150254
      3.88359  0.000151282
      3.88489  0.000150575
      3.88618  0.000149542
      3.88748  0.000149148
      3.88877  0.000148857
      3.89007  0.000149794
      3.89136  0.000147898
      3.89266  0.000142758
      3.89397  0.000147013
      3.89526  0.000138201
      3.89656  0.000149008
      3.89785  0.000142087
      3.89916  0.000148709
      3.90046  0.000150039
      3.90176  0.000150397
      3.90306  0.000148547
      3.90436  0.000147519
      3.90566  0.000149020
      3.90696  0.000150232
      3.90827  0.000145953
      3.90957  0.000145212
      3.91087  0.000145350
      3.91218  0.000147307
      3.91348  0.000145770
      3.91478  0.000147542
      3.91609  0.000149714
      3.91739  0.000148833
      3.91870  0.000149634
      3.92000  0.000147112
      3.92131  0.000149555
      3.92262  0.000149125
      3.92392  0.000147848
      3.92523  0.000150002
      3.92654  0.000148454
      3.92786  0.000148875
      3.92916  0.000149570
      3.93046  0.000147692
      3.93178  0.000147445
      3.93309  0.000142661
      3.93440  0.000148911
      3.93571  0.000140396
      3.93703  0.000148543
      3.93834  0.000143443
      3.93965  0.000147713
      3.94096  0.000146944
      3.94228  0.000148795
      3.94359  0.000149134
      3.94490  0.000148359
      3.94621  0.000147631
      3.94754  0.000147487
      3.94886  0.000148465
      3.95017  0.000146619
      3.95148  0.000146615
      3.95280  0.000146970
      3.95412  0.000147806
      3.95544  0.000147222
      3.95676  0.000146731
      3.95808  0.000147859
      3.95939  0.000147675
      3.96071  0.000147954
      3.96203  0.000147591
      3.96336  0.000146311
      3.96468  0.000145784
      3.96600  0.000147131
      3.96732  0.000147149
      3.96864  0.000146529
      3.96996  0.000146205
      3.97128  0.000146400
      3.97261  0.000147380
      3.97393  0.000146532
      3.97526  0.000147163
      3.97659  0.000146269
      3.97792  0.000144039
      3.97924  0.000141037
      3.98056  0.000141260
      3.98189  0.000139108
      3.98322  0.000143064
      3.98455  0.000140892
      3.98588  0.000143507
      3.98721  0.000145330
      3.98854  0.000141363
      3.98987  0.000145090
      3.99120  0.000142355
      3.99253  0.000144840
      3.99386  0.000145261
      3.99519  0.000146692
      3.99652  0.000145101
      3.99785  0.000145231
      3.99918  0.000142984
      4.00050  0.000146118
      4.00185  0.000144371
      4.00318  0.000146145
      4.00452  0.000145111
      4.00585  0.000145356
      4.00718  0.000143416
      4.00852  0.000144865
      4.00986  0.000145130
      4.01120  0.000146140
      4.01253  0.000145382
      4.01386  0.000143713
      4.01520  0.000144306
      4.01654  0.000143979
      4.01788  0.000140119
      4.01922  0.000143072
      4.02056  0.000137128
      4.02190  0.000144896
      4.02324  0.000139221
      4.02458  0.000144481
      4.02592  0.000143897
      4.02726  0.000144553
      4.02861  0.000144825
      4.02996  0.000142532
      4.03130  0.000144062
      4.03264  0.000143898
      4.03398  0.000142406
      4.03533  0.000145573
      4.03668  0.000141803
      4.03802  0.000144980
      4.03936  0.000144811
      4.04071  0.000140018
      4.04206  0.000143247
      4.04341  0.000141989
      4.04476  0.000141258
      4.04610  0.000143397
      4.04745  0.000141963
      4.04880  0.000142988
      4.05015  0.000142714
      4.05150  0.000140729
      4.05285  0.000141988
      4.05420  0.000142456
      4.05555  0.000143198
      4.05691  0.000142686
      4.05826  0.000142214
      4.05961  0.000140176
      4.06097  0.000140443
      4.06232  0.000139838
      4.06367  0.000141629
      4.06503  0.000142156
      4.06638  0.000142236
      4.06773  0.000142739
      4.06909  0.000139102
      4.07045  0.000138685
      4.07181  0.000136402
      4.07317  0.000140116
      4.07452  0.000133542
      4.07587  0.000137839
      4.07723  0.000139393
      4.07859  0.000141666
      4.07995  0.000140022
      4.08131  0.000140993
      4.08267  0.000141266
      4.08403  0.000138078
      4.08539  0.000138795
      4.08676  0.000139312
      4.08813  0.000139739
      4.08949  0.000140724
      4.09085  0.000139329
      4.09221  0.000138873
      4.09357  0.000140411
      4.09494  0.000141124
      4.09631  0.000140056
      4.09767  0.000139420
      4.09904  0.000139924
      4.10041  0.000141565
      4.10177  0.000139809
      4.10314  0.000139204
      4.10451  0.000141403
      4.10587  0.000142268
      4.10724  0.000137024
      4.10861  0.000136794
      4.10998  0.000133942
      4.11135  0.000139716
      4.11272  0.000138952
      4.11409  0.000140078
      4.11546  0.000138345
      4.11684  0.000138758
      4.11821  0.000137617
      4.11958  0.000140349
      4.12096  0.000139371
      4.12233  0.000140828
      4.12370  0.000137016
      4.12508  0.000140269
      4.12645  0.000140769
      4.12782  0.000140365
      4.12920  0.000135859
      4.13058  0.000138564
      4.13196  0.000138831
      4.13334  0.000137618
      4.13471  0.000139730
      4.13608  0.000139125
      4.13746  0.000137191
      4.13884  0.000137006
      4.14022  0.000136266
      4.14160  0.000140294
      4.14298  0.000138829
      4.14436  0.000138614
      4.14575  0.000138139
      4.14714  0.000138065
      4.14852  0.000139789
      4.14990  0.000136846
      4.15128  0.000137922
      4.15266  0.000140634
      4.15404  0.000138963
      4.15543  0.000137336
      4.15682  0.000133908
      4.15820  0.000135013
      4.15959  0.000137386
      4.16098  0.000135106
      4.16236  0.000134374
      4.16375  0.000137060
      4.16514  0.000136138
      4.16653  0.000133305
      4.16792  0.000133900
      4.16930  0.000135675
      4.17069  0.000132629
      4.17208  0.000133630
      4.17347  0.000137909
      4.17487  0.000136522
      4.17626  0.000138444
      4.17765  0.000135395
      4.17904  0.000137655
      4.18043  0.000136862
      4.18183  0.000136786
      4.18323  0.000136871
      4.18462  0.000133589
      4.18601  0.000134337
      4.18741  0.000135230
      4.18881  0.000137583
      4.19020  0.000134809
      4.19159  0.000136841
      4.19299  0.000135185
      4.19439  0.000136022
      4.19579  0.000137561
      4.19719  0.000135487
      4.19859  0.000134571
      4.19999  0.000135205
      4.20139  0.000133117
      4.20279  0.000133292
      4.20419  0.000131148
      4.20559  0.000133542
      4.20699  0.000132128
      4.20839  0.000135817
      4.20979  0.000133269
      4.21120  0.000134467
      4.21261  0.000132788
      4.21401  0.000131512
      4.21541  0.000132654
      4.21682  0.000132600
      4.21823  0.000132427
      4.21963  0.000130742
      4.22103  0.000131239
      4.22244  0.000129029
      4.22385  0.000131794
      4.22526  0.000131187
      4.22667  0.000130564
      4.22808  0.000127192
      4.22949  0.000126614
      4.23089  0.000125175
      4.23230  0.000123518
      4.23372  0.000119444
      4.23513  0.000117472
      4.23654  0.000113145
      4.23795  0.000109146
      4.23936  0.000102908
      4.24078  9.85818e-05
      4.24219  9.37429e-05
      4.24360  8.79377e-05
      4.24502  8.37300e-05
      4.24644  7.76340e-05
      4.24785  7.17776e-05
      4.24926  6.72626e-05
      4.25068  5.93849e-05
      4.25210  5.54679e-05
      4.25352  5.02161e-05
      4.25494  4.66354e-05
      4.25636  4.17053e-05
      4.25778  3.70505e-05
      4.25919  3.32525e-05
      4.26060  2.98001e-05
      4.26203  2.63152e-05
      4.26346  2.30151e-05
      4.26488  2.03571e-05
      4.26630  1.80775e-05
      4.26772  1.63757e-05
      4.26914  1.53386e-05
      4.27056  1.58502e-05
      4.27198  1.74850e-05
      4.27341  2.07408e-05
      4.27484  2.68087e-05
      4.27626  3.37387e-05
      4.27768  4.28608e-05
      4.27911  5.29722e-05
      4.28054  6.30901e-05
      4.28196  7.26002e-05
      4.28339  8.28158e-05
      4.28482  9.49490e-05
      4.28625  0.000104593
      4.28768  0.000112195
      4.28910  0.000118368
      4.29053  0.000123655
      4.29196  0.000126389
      4.29339  0.000125543
      4.29483  0.000124588
      4.29626  0.000124576
      4.29769  0.000127201
      4.29912  0.000130574
      4.30055  0.000127848
      4.30199  0.000128392
      4.30342  0.000127128
      4.30485  0.000129131
      4.30629  0.000127545
      4.30773  0.000131096
      4.30917  0.000129689
      4.31060  0.000130051
      4.31203  0.000130782
      4.31347  0.000130033
      4.31491  0.000133994
      4.31635  0.000128431
      4.31779  0.000129087
      4.31923  0.000128855
      4.32067  0.000133025
      4.32211  0.000129301
      4.32355  0.000129726
      4.32499  0.000131330
      4.32643  0.000129012
      4.32787  0.000132351
      4.32931  0.000129530
      4.33076  0.000128254
      4.33221  0.000132740
      4.33365  0.000126449
      4.33509  0.000134759
      4.33653  0.000125850
      4.33798  0.000131771
      4.33943  0.000126665
      4.34087  0.000132377
      4.34232  0.000127297
      4.34377  0.000131460
      4.34522  0.000125488
      4.34667  0.000130764
      4.34811  0.000125725
      4.34956  0.000132454
      4.35101  0.000121056
      4.35246  0.000127990
      4.35392  0.000123237
      4.35537  0.000129083
      4.35682  0.000125432
      4.35827  0.000130557
      4.35972  0.000126646
      4.36118  0.000127223
      4.36263  0.000129893
      4.36408  0.000122847
      4.36554  0.000129785
      4.36700  0.000121545
      4.36845  0.000126763
      4.36990  0.000129521
      4.37136  0.000124613
      4.37282  0.000127648
      4.37428  0.000120082
      4.37574  0.000123809
      4.37720  0.000127551
      4.37866  0.000118123
      4.38012  0.000125825
      4.38158  0.000118580
      4.38304  0.000121349
      4.38450  0.000125417
      4.38596  0.000115614
      4.38742  0.000123262
      4.38888  0.000123895
      4.39034  0.000115474
      4.39180  0.000127041
      4.39327  0.000122729
      4.39474  0.000121372
      4.39620  0.000123621
      4.39766  0.000124827
      4.39913  0.000119884
      4.40060  0.000130061
      4.40206  0.000117154
      4.40353  0.000128180
      4.40500  0.000122332
      4.40647  0.000121441
      4.40794  0.000120104
      4.40941  0.000126223
      4.41088  0.000120207
      4.41235  0.000121948
      4.41382  0.000127615
      4.41529  0.000119586
      4.41676  0.000124550
      4.41823  0.000122184
      4.41971  0.000126213
      4.42118  0.000118401
      4.42265  0.000122818
      4.42413  0.000125990
      4.42560  0.000113532
      4.42707  0.000128641
      4.42855  0.000122085
      4.43003  0.000118028
      4.43151  0.000125535
      4.43299  0.000122883
      4.43446  0.000117265
      4.43593  0.000122963
      4.43741  0.000122295
      4.43889  0.000122585
      4.44037  0.000113792
      4.44185  0.000124360
      4.44333  0.000125231
      4.44481  0.000115313
      4.44629  0.000125364
      4.44778  0.000127692
      4.44927  0.000117852
      4.45075  0.000118780
      4.45223  0.000123495
      4.45371  0.000121753
      4.45520  0.000115506
      4.45669  0.000125835
      4.45817  0.000119131
      4.45965  0.000125488
      4.46114  0.000115952
      4.46263  0.000123612
      4.46411  0.000123347
      4.46560  0.000120923
      4.46709  0.000114177
      4.46858  0.000124556
      4.47007  0.000122630
      4.47156  0.000111834
      4.47305  0.000125380
      4.47454  0.000121004
      4.47604  0.000120152
      4.47753  0.000113822
      4.47902  0.000125711
      4.48051  0.000118052
      4.48200  0.000121669
      4.48350  0.000118693
      4.48500  0.000117165
      4.48649  0.000127104
      4.48798  0.000123405
      4.48948  0.000112441
      4.49098  0.000119715
      4.49248  0.000119682
      4.49397  0.000122507
      4.49546  0.000111579
      4.49696  0.000120610
      4.49846  0.000121959
      4.49994  0.000118347
      4.50146  0.000116072
      4.50297  0.000123802
      4.50447  0.000119058
      4.50596  0.000113433
      4.50747  0.000118002
      4.50898  0.000119633
      4.51048  0.000118443
      4.51198  0.000121645
      4.51348  0.000114212
      4.51499  0.000123323
      4.51649  0.000117561
      4.51800  0.000119525
      4.51951  0.000115644
      4.52101  0.000119088
      4.52252  0.000115237
      4.52403  0.000120414
      4.52554  0.000117163
      4.52704  0.000112684
      4.52855  0.000120152
      4.53006  0.000124219
      4.53157  0.000113144
      4.53307  0.000112004
      4.53459  0.000119546
      4.53611  0.000118635
      4.53762  0.000124269
      4.53913  0.000112038
      4.54064  0.000122418
      4.54215  0.000116301
      4.54367  0.000123283
      4.54518  0.000109426
      4.54670  0.000117565
      4.54822  0.000119803
      4.54973  0.000120062
      4.55124  0.000112069
      4.55276  0.000115450
      4.55428  0.000119471
      4.55580  0.000122836
      4.55732  0.000112734
      4.55884  0.000111799
      4.56036  0.000123662
      4.56187  0.000115620
      4.56339  0.000115658
      4.56492  0.000118761
      4.56644  0.000113305
      4.56796  0.000114650
      4.56949  0.000114956
      4.57101  0.000116431
      4.57253  0.000113370
      4.57406  0.000121556
      4.57559  0.000113840
      4.57711  0.000121836
      4.57863  0.000117497
      4.58016  0.000112212
      4.58169  0.000117116
      4.58322  0.000122114
      4.58475  0.000112750
      4.58628  0.000120661
      4.58781  0.000114842
      4.58934  0.000109327
      4.59087  0.000119147
      4.59240  0.000122268
      4.59393  0.000113097
      4.59546  0.000105262
      4.59699  0.000118207
      4.59852  0.000120415
      4.60005  0.000118020
      4.60158  0.000109772
      4.60311  0.000117326
      4.60465  0.000115375
      4.60619  0.000120856
      4.60772  0.000116480
      4.60925  0.000107470
      4.61079  0.000122050
      4.61233  0.000119329
      4.61386  0.000114930
      4.61540  0.000111371
      4.61694  0.000114922
      4.61847  0.000119167
      4.62001  0.000114540
      4.62156  0.000118221
      4.62310  0.000114257
      4.62464  0.000116895
      4.62618  0.000108014
      4.62772  0.000122288
      4.62926  0.000121260
      4.63082  0.000111816
      4.63236  0.000119725
      4.63390  0.000113119
      4.63544  0.000118985
      4.63698  0.000108439
      4.63853  0.000119408
      4.64008  0.000116133
      4.64163  0.000118631
      4.64317  0.000114017
      4.64472  0.000115468
      4.64627  0.000116894
      4.64782  0.000114537
      4.64937  0.000118099
      4.65091  0.000117866
      4.65246  0.000111169
      4.65401  0.000114712
      4.65556  0.000122063
      4.65712  0.000114470
      4.65867  0.000119102
      4.66022  0.000107235
      4.66178  0.000116312
      4.66333  0.000112993
      4.66488  0.000103378
      4.66644  7.17128e-05
      4.66801  5.62797e-05
      4.66956  5.02634e-05
      4.67111  4.45144e-05
      4.67267  3.86729e-05
      4.67422  3.80706e-05
      4.67578  4.77272e-05
      4.67734  6.83875e-05
      4.67890  9.18079e-05
      4.68046  0.000100632
      4.68202  0.000109063
      4.68358  0.000107918
      4.68514  0.000108846
      4.68671  0.000116186
      4.68827  0.000114843
      4.68983  0.000113030
      4.69140  0.000108985
      4.69296  0.000120606
      4.69452  0.000117660
      4.69609  0.000111223
      4.69765  0.000115971
      4.69921  0.000106118
      4.70078  0.000118144
      4.70235  0.000116052
      4.70392  0.000113191
      4.70548  0.000112727
      4.70706  0.000114061
      4.70863  0.000111102
      4.71020  0.000114873
      4.71176  0.000112962
      4.71333  0.000114196
      4.71491  0.000118744
      4.71648  0.000115564
      4.71805  0.000107868
      4.71961  0.000112036
      4.72119  0.000114566
      4.72276  0.000118559
      4.72434  0.000113831
      4.72591  0.000111045
      4.72749  0.000111324
      4.72906  0.000113192
      4.73064  0.000118970
      4.73222  0.000115210
      4.73381  0.000108893
      4.73538  0.000110660
      4.73696  0.000116175
      4.73853  0.000114252
      4.74011  0.000112029
      4.74169  0.000111559
      4.74328  0.000120312
      4.74486  0.000108943
      4.74643  0.000117967
      4.74802  0.000113256
      4.74960  0.000110004
      4.75118  0.000114143
      4.75276  0.000117146
      4.75435  0.000105937
      4.75594  0.000114729
      4.75752  0.000116102
      4.75911  0.000111835
      4.76070  0.000112179
      4.76228  0.000109989
      4.76387  0.000111848
      4.76545  0.000112588
      4.76705  0.000111534
      4.76864  0.000114542
      4.77023  0.000114222
      4.77182  0.000115032
      4.77341  0.000108329
      4.77499  0.000112334
      4.77659  0.000110270
      4.77818  0.000108459
      4.77977  0.000105136
      4.78136  0.000113747
      4.78296  0.000109810
      4.78456  0.000112731
      4.78615  0.000107176
      4.78775  0.000113051
      4.78935  0.000115934
      4.79095  0.000111550
      4.79254  0.000110597
      4.79414  0.000107790
      4.79574  0.000111036
      4.79734  0.000116014
      4.79893  0.000118083
      4.80053  0.000107649
      4.80213  0.000111686
      4.80373  0.000107928
      4.80533  0.000112668
      4.80692  0.000113495
      4.80853  0.000114329
      4.81014  0.000109305
      4.81174  0.000111491
      4.81335  0.000106966
      4.81495  0.000106522
      4.81655  0.000115673
      4.81816  0.000113896
      4.81977  0.000109580
      4.82137  0.000117440
      4.82298  0.000108789
      4.82458  0.000109445
      4.82619  0.000116020
      4.82780  0.000108935
      4.82941  0.000114031
      4.83102  0.000115770
      4.83263  0.000108800
      4.83425  0.000105567
      4.83586  0.000109125
      4.83747  0.000109678
      4.83909  0.000115612
      4.84069  0.000107386
      4.84230  0.000110214
      4.84392  0.000104725
      4.84553  0.000117528
      4.84714  0.000113002
      4.84876  0.000108989
      4.85038  0.000115244
      4.85200  0.000109852
      4.85362  0.000107073
      4.85524  0.000111311
      4.85686  0.000106914
      4.85848  0.000110466
      4.86010  0.000114452
      4.86172  0.000116871
      4.86334  0.000106844
      4.86496  0.000103103
      4.86658  0.000108879
      4.86820  0.000113578
      4.86982  0.000111448
      4.87144  0.000111088
      4.87306  0.000107726
      4.87468  0.000108276
      4.87631  0.000100788
      4.87794  0.000109252
      4.87956  0.000113361
      4.88120  0.000108480
      4.88283  0.000113928
      4.88445  0.000108157
      4.88608  0.000106750
      4.88771  0.000111007
      4.88933  0.000111090
      4.89096  0.000112680
      4.89259  0.000110746
      4.89422  0.000107326
      4.89585  0.000105021
      4.89748  0.000104542
      4.89912  0.000106795
      4.90075  0.000116526
      4.90239  0.000111484
      4.90402  0.000113977
      4.90565  0.000100809
      4.90729  0.000112341
      4.90893  0.000105446
      4.91056  0.000111456
      4.91220  0.000107802
      4.91384  0.000113716
      4.91547  0.000103786
      4.91710  0.000113690
      4.91875  0.000111594
      4.92039  0.000106028
      4.92203  0.000113461
      4.92368  0.000111446
      4.92532  0.000103691
      4.92696  0.000106255
      4.92860  0.000104535
      4.93024  0.000113120
      4.93189  0.000107260
      4.93353  0.000109237
      4.93517  0.000106623
      4.93681  0.000102968
      4.93846  0.000104922
      4.94011  0.000114314
      4.94176  0.000112432
      4.94341  0.000103316
      4.94505  0.000114104
      4.94669  0.000107756
      4.94835  0.000102889
      4.95000  0.000109286
      4.95164  0.000106972
      4.95330  0.000105501
      4.95495  0.000101372
      4.95660  0.000111292
      4.95826  0.000105990
      4.95991  0.000103038
      4.96157  0.000111681
      4.96322  0.000111026
      4.96487  0.000108738
      4.96653  0.000103610
      4.96818  0.000100511
      4.96983  0.000105725
      4.97150  0.000105935
      4.97315  0.000109244
      4.97481  0.000111677
      4.97647  0.000110291
      4.97813  0.000104918
      4.97978  0.000103439
      4.98144  0.000108101
      4.98311  0.000104860
      4.98477  0.000112124
      4.98643  0.000110379
      4.98808  0.000112990
      4.98975  0.000103285
      4.99141  0.000101594
      4.99308  0.000107993
      4.99474  0.000104656
      4.99641  0.000104185
      4.99807  0.000110064
      4.99972  9.98240e-05
      5.00140  0.000102777
      5.00308  0.000103644
      5.00474  0.000110527
      5.00640  0.000106058
      5.00807  0.000106232
      5.00975  0.000107332
      5.01143  0.000107807
      5.01309  0.000101781
      5.01475  0.000103683
      5.01643  0.000106943
      5.01810  0.000101312
      5.01977  0.000104108
      5.02145  0.000104174
      5.02312  0.000104845
      5.02480  0.000100557
      5.02647  0.000102875
      5.02815  0.000100446
      5.02982  0.000102582
      5.03150  0.000108297
      5.03317  0.000103770
      5.03485  0.000107198
      5.03652  0.000108560
      5.03821  0.000104899
      5.03990  0.000101395
      5.04157  0.000107920
      5.04325  9.88827e-05
      5.04492  0.000106510
      5.04661  9.95042e-05
      5.04830  0.000103649
      5.04997  0.000110607
      5.05166  0.000107982
      5.05335  0.000103396
      5.05503  9.98980e-05
      5.05671  0.000107141
      5.05840  9.89395e-05
      5.06009  0.000105877
      5.06177  0.000102564
      5.06346  0.000106948
      5.06515  0.000104341
      5.06684  9.58322e-05
      5.06852  0.000108188
      5.07021  0.000104071
      5.07191  0.000106681
      5.07360  0.000106910
      5.07529  0.000102251
      5.07699  0.000105715
      5.07867  9.92400e-05
      5.08036  0.000102484
      5.08206  0.000100107
      5.08375  0.000101157
      5.08544  0.000104987
      5.08714  0.000102775
      5.08884  0.000103689
      5.09054  0.000103434
      5.09224  9.62531e-05
      5.09394  0.000102493
      5.09562  0.000100049
      5.09731  0.000108264
      5.09901  0.000103380
      5.10071  0.000105365
      5.10241  0.000107261
      5.10411  0.000103349
      5.10582  9.83900e-05
      5.10754  0.000103412
      5.10924  0.000101124
      5.11094  0.000101233
      5.11264  0.000103930
      5.11434  0.000102767
      5.11604  0.000107253
      5.11775  0.000103010
      5.11946  9.82857e-05
      5.12116  0.000100066
      5.12286  0.000104722
      5.12458  9.99405e-05
      5.12629  0.000105221
      5.12799  9.56760e-05
      5.12970  0.000102994
      5.13141  9.89205e-05
      5.13312  9.73196e-05
      5.13484  0.000103499
      5.13655  0.000105211
      5.13826  0.000105087
      5.13998  0.000100102
      5.14169  0.000104024
      5.14340  0.000101898
      5.14511  9.22628e-05
      5.14682  9.74731e-05
      5.14855  0.000104014
      5.15026  0.000100930
      5.15197  0.000107088
      5.15370  0.000104788
      5.15541  0.000103796
      5.15712  0.000105801
      5.15885  9.60336e-05
      5.16057  9.54433e-05
      5.16230  9.61198e-05
      5.16401  0.000101055
      5.16572  0.000101744
      5.16745  9.97493e-05
      5.16917  9.56637e-05
      5.17090  0.000103744
      5.17263  9.61795e-05
      5.17435  0.000100665
      5.17607  0.000101185
      5.17780  0.000104214
      5.17952  9.95292e-05
      5.18125  0.000102847
      5.18297  0.000103767
      5.18470  9.72719e-05
      5.18642  9.99723e-05
      5.18816  9.89008e-05
      5.18990  0.000106570
      5.19163  0.000103163
      5.19335  0.000101590
      5.19508  9.74479e-05
      5.19681  9.65271e-05
      5.19855  9.61863e-05
      5.20027  9.75360e-05
      5.20201  9.50107e-05
      5.20375  0.000101985
      5.20547  9.92510e-05
      5.20721  0.000105855
      5.20895  0.000104201
      5.21069  9.67501e-05
      5.21242  9.70245e-05
      5.21416  9.87023e-05
      5.21590  0.000105617
      5.21764  9.63895e-05
      5.21938  0.000103052
      5.22111  9.69534e-05
      5.22286  9.94063e-05
      5.22460  0.000101643
      5.22634  9.60590e-05
      5.22809  9.82140e-05
      5.22983  0.000100095
      5.23156  9.73269e-05
      5.23331  0.000100640
      5.23506  0.000100514
      5.23681  0.000100206
      5.23855  9.94432e-05
      5.24029  9.11585e-05
      5.24204  9.55666e-05
      5.24379  0.000101208
      5.24554  9.33450e-05
      5.24729  0.000100610
      5.24904  0.000101834
      5.25079  9.78825e-05
      5.25254  9.74406e-05
      5.25429  9.48482e-05
      5.25604  9.73988e-05
      5.25779  9.76142e-05
      5.25954  0.000104820
      5.26129  0.000101269
      5.26305  0.000100568
      5.26481  0.000102433
      5.26656  9.62848e-05
      5.26831  9.58491e-05
      5.27006  9.45575e-05
      5.27182  9.80497e-05
      5.27359  9.85680e-05
      5.27534  9.38004e-05
      5.27710  9.88785e-05
      5.27886  9.79249e-05
      5.28061  9.41526e-05
      5.28237  9.33807e-05
      5.28414  9.67294e-05
      5.28590  9.58127e-05
      5.28766  0.000100706
      5.28942  0.000100706
      5.29119  9.99406e-05
      5.29295  9.45810e-05
      5.29471  9.69261e-05
      5.29647  9.48690e-05
      5.29825  9.49731e-05
      5.30001  9.88782e-05
      5.30177  0.000100076
      5.30355  0.000101025
      5.30531  9.79738e-05
      5.30708  9.68968e-05
      5.30885  9.11639e-05
      5.31063  9.19079e-05
      5.31240  9.94270e-05
      5.31416  0.000100445
      5.31593  9.79055e-05
      5.31770  9.71211e-05
      5.31947  9.36123e-05
      5.32125  8.75612e-05
      5.32302  9.47616e-05
      5.32480  0.000101753
      5.32657  9.49656e-05
      5.32835  0.000100713
      5.33012  9.31455e-05
      5.33190  9.72927e-05
      5.33367  0.000101522
      5.33545  9.48633e-05
      5.33724  9.71795e-05
      5.33903  9.55029e-05
      5.34080  9.49014e-05
      5.34258  9.75603e-05
      5.34435  9.46033e-05
      5.34614  9.56802e-05
      5.34792  9.52194e-05
      5.34970  9.24273e-05
      5.35149  9.10532e-05
      5.35327  9.61042e-05
      5.35505  9.74362e-05
      5.35684  9.92037e-05
      5.35862  9.76287e-05
      5.36041  9.74975e-05
      5.36220  9.60980e-05
      5.36399  9.09254e-05
      5.36578  9.53581e-05
      5.36756  9.13720e-05
      5.36935  9.70220e-05
      5.37114  9.07255e-05
      5.37294  9.80649e-05
      5.37472  0.000100833
      5.37651  9.52052e-05
      5.37831  9.22060e-05
      5.38010  9.30697e-05
      5.38189  9.78111e-05
      5.38369  9.84080e-05
      5.38549  9.48812e-05
      5.38727  9.26774e-05
      5.38906  9.37209e-05
      5.39086  9.42035e-05
      5.39266  9.23750e-05
      5.39446  9.41703e-05
      5.39626  9.86977e-05
      5.39806  9.77664e-05
      5.39986  9.84399e-05
      5.40166  9.27849e-05
      5.40346  9.50222e-05
      5.40526  9.20879e-05
      5.40706  9.34933e-05
      5.40886  8.85820e-05
      5.41066  9.18645e-05
      5.41246  9.36637e-05
      5.41427  9.75897e-05
      5.41609  9.39947e-05
      5.41789  9.27658e-05
      5.41969  9.55534e-05
      5.42150  9.07332e-05
      5.42331  9.17921e-05
      5.42511  9.43448e-05
      5.42692  9.38172e-05
      5.42874  8.92326e-05
      5.43054  9.05030e-05
      5.43235  9.44105e-05
      5.43416  9.46496e-05
      5.43598  8.97738e-05
      5.43779  9.29683e-05
      5.43960  9.31352e-05
      5.44141  9.86768e-05
      5.44322  9.19096e-05
      5.44504  9.45314e-05
      5.44685  9.53195e-05
      5.44867  9.32915e-05
      5.45049  9.48012e-05
      5.45230  9.11389e-05
      5.45412  9.14570e-05
      5.45594  9.19146e-05
      5.45775  9.63616e-05
      5.45957  8.86237e-05
      5.46140  9.68475e-05
      5.46322  9.05726e-05
      5.46504  9.48455e-05
      5.46685  9.18629e-05
      5.46868  8.69674e-05
      5.47050  9.62153e-05
      5.47232  9.42105e-05
      5.47415  9.48456e-05
      5.47598  9.31217e-05
      5.47780  8.68404e-05
      5.47962  9.45308e-05
      5.48145  9.32377e-05
      5.48327  9.15709e-05
      5.48510  9.14357e-05
      5.48694  9.02291e-05
      5.48877  9.79300e-05
      5.49060  9.04132e-05
      5.49242  9.33524e-05
      5.49425  9.12939e-05
      5.49609  9.28588e-05
      5.49792  9.32573e-05
      5.49941  9.06110e-05
